Fp1,Fp2,C3,C4,P7,P8,O1,O2,marker
0.0,0.0,0.0,0.0,0.0,0.0,0.0,0.0,1000
19543.560688920104,15182.310662545045,-131488.02596187903,-187500.02235174447,-156921.07014907245,-187500.02235174447,-187500.02235174447,-187500.02235174447,2000
19516.67154034037,15172.207674051248,-131544.1511922063,-187500.02235174447,-156974.75903925407,-187500.02235174447,-187500.02235174447,-187500.02235174447,2000
19545.237069754254,15183.271787556623,-131612.1675505838,-187500.02235174447,-157036.58396441746,-187500.02235174447,-187500.02235174447,-187500.02235174447,2000
19565.73361941977,15191.67604347182,-131598.44357948823,-187500.02235174447,-157012.13115598337,-187500.02235174447,-187500.02235174447,-187500.02235174447,2000
19544.43240695386,15191.497229516177,-131594.6661346753,-187500.02235174447,-157008.13019372587,-187500.02235174447,-187500.02235174447,-187500.02235174447,2000
19523.310008443597,15176.678022942308,-131720.55115944758,-187500.02235174447,-157128.7402068067,-187500.02235174447,-187500.02235174447,-187500.02235174447,2000
19545.214718009796,15181.796572422574,-131755.86691568696,-187500.02235174447,-157150.3990471839,-187500.02235174447,-187500.02235174447,-187500.02235174447,2000
19576.060125358123,15197.86747668594,-131752.62591274094,-187500.02235174447,-157137.30092493308,-187500.02235174447,-187500.02235174447,-187500.02235174447,2000
19555.16124429241,15181.14837183337,-131826.16315199892,-187500.02235174447,-157211.88869618042,-187500.02235174447,-187500.02235174447,-187500.02235174447,2000
19517.878534540956,15164.138694302881,-131932.7362695618,-187500.02235174447,-157313.633836941,-187500.02235174447,-187500.02235174447,-187500.02235174447,2000
19542.24193599724,15166.060944326038,-131940.40291791,-187500.02235174447,-157311.4880694733,-187500.02235174447,-187500.02235174447,-187500.02235174447,2000
19576.35069803604,15193.061851628048,-131958.12785126304,-187500.02235174447,-157323.84858415707,-187500.02235174447,-187500.02235174447,-187500.02235174447,2000
19569.466360743805,15200.639092998397,-131999.03154361626,-187500.02235174447,-157355.36454383907,-187500.02235174447,-187500.02235174447,-187500.02235174447,2000
19539.29150572914,15195.073508629026,-132007.54755825372,-187500.02235174447,-157359.76783749674,-187500.02235174447,-187500.02235174447,-187500.02235174447,2000
19538.620953395483,15185.462258513244,-132096.68631514147,-187500.02235174447,-157442.7598646593,-187500.02235174447,-187500.02235174447,-187500.02235174447,2000
19570.986279366767,15195.140563862393,-132132.940844648,-187500.02235174447,-157465.55864400373,-187500.02235174447,-187500.02235174447,-187500.02235174447,2000
19573.377916023484,15197.085165630004,-132141.1439348631,-187500.02235174447,-157469.0678678832,-187500.02235174447,-187500.02235174447,-187500.02235174447,2000
19541.280810985663,15191.43017428281,-132230.37209872867,-187500.02235174447,-157554.25036600238,-187500.02235174447,-187500.02235174447,-187500.02235174447,2000
19537.190441750343,15178.354403776457,-132264.3243985563,-187500.02235174447,-157578.12202908064,-187500.02235174447,-187500.02235174447,-187500.02235174447,2000
19576.797732925144,15193.642996983886,-132238.99987208843,-187500.02235174447,-157548.81889209975,-187500.02235174447,-187500.02235174447,-187500.02235174447,2000
19571.187445066866,15196.235799340702,-132314.01232648044,-187500.02235174447,-157617.1928783885,-187500.02235174447,-187500.02235174447,-187500.02235174447,2000
19541.973715063777,15172.788819407086,-132375.32316152134,-187500.02235174447,-157666.21025397902,-187500.02235174447,-187500.02235174447,-187500.02235174447,2000
19541.303162730117,15168.743153660675,-132377.17835631114,-187500.02235174447,-157667.46195166852,-187500.02235174447,-187500.02235174447,-187500.02235174447,2000
19557.999915838234,15181.327185789012,-132426.24043539053,-187500.02235174447,-157715.2276295695,-187500.02235174447,-187500.02235174447,-187500.02235174447,2000
19567.67822118738,15191.273712071625,-132474.29668596946,-187500.02235174447,-157750.31986836434,-187500.02235174447,-187500.02235174447,-187500.02235174447,2000
19554.133064047466,15190.312587060045,-132505.2315002956,-187500.02235174447,-157774.66091807614,-187500.02235174447,-187500.02235174447,-187500.02235174447,2000
19536.989276050244,15184.277616057112,-132586.94947802418,-187500.02235174447,-157855.08249462635,-187500.02235174447,-187500.02235174447,-187500.02235174447,2000
19565.130122319475,15187.406860280857,-132607.9377660677,-187500.02235174447,-157863.33028833035,-187500.02235174447,-187500.02235174447,-187500.02235174447,2000
19589.806448198135,15196.571075507532,-132609.21181550168,-187500.02235174447,-157859.73165747305,-187500.02235174447,-187500.02235174447,-187500.02235174447,2000
19564.77249440819,15203.634226755408,-132682.5255373151,-187500.02235174447,-157937.51572817753,-187500.02235174447,-187500.02235174447,-187500.02235174447,2000
19538.643305139936,15208.81983146904,-132756.30864576207,-187500.02235174447,-158003.43102257623,-187500.02235174447,-187500.02235174447,-187500.02235174447,2000
19552.59079368005,15181.282482300101,-132785.94705890978,-187500.02235174447,-158024.50871759758,-187500.02235174447,-187500.02235174447,-187500.02235174447,2000
19591.72869822129,15180.634281710898,-132780.64969547387,-187500.02235174447,-158015.7468337711,-187500.02235174447,-187500.02235174447,-187500.02235174447,2000
19583.838532428566,15195.364081306945,-132870.32489422857,-187500.02235174447,-158099.5211719896,-187500.02235174447,-187500.02235174447,-187500.02235174447,2000
19551.428502968374,15186.401031780368,-132935.81550548263,-187500.02235174447,-158153.94766973826,-187500.02235174447,-187500.02235174447,-187500.02235174447,2000
19567.834683398567,15186.110459102449,-132929.28879610167,-187500.02235174447,-158141.25187888765,-187500.02235174447,-187500.02235174447,-187500.02235174447,2000
19597.338986079572,15197.688662730297,-132984.67641886193,-187500.02235174447,-158197.26535049264,-187500.02235174447,-187500.02235174447,-187500.02235174447,2000
19588.599453997547,15196.928703418816,-133056.71609124137,-187500.02235174447,-158263.605328036,-187500.02235174447,-187500.02235174447,-187500.02235174447,2000
19551.026171568177,15178.019127609627,-133096.47984462738,-187500.02235174447,-158295.32245341808,-187500.02235174447,-187500.02235174447,-187500.02235174447,2000
19561.933822862367,15194.514715017644,-133102.5595191192,-187500.02235174447,-158301.58094186557,-187500.02235174447,-187500.02235174447,-187500.02235174447,2000
19595.05910814513,15198.918008675339,-133135.64010091306,-187500.02235174447,-158332.4710527028,-187500.02235174447,-187500.02235174447,-187500.02235174447,2000
19611.286474619686,15199.812078453551,-133194.82752023073,-187500.02235174447,-158378.7391637253,-187500.02235174447,-187500.02235174447,-187500.02235174447,2000
19566.73944792026,15191.296063816078,-133240.02274751934,-187500.02235174447,-158416.37950138803,-187500.02235174447,-187500.02235174447,-187500.02235174447,2000
19569.868692144002,15193.061851628048,-133243.6437301211,-187500.02235174447,-158422.14625145748,-187500.02235174447,-187500.02235174447,-187500.02235174447,2000
19585.805485940637,15198.67213948633,-133324.33352760476,-187500.02235174447,-158496.06347037118,-187500.02235174447,-187500.02235174447,-187500.02235174447,2000
19594.88029418949,15195.118212117937,-133360.49865013346,-187500.02235174447,-158518.14699389302,-187500.02235174447,-187500.02235174447,-187500.02235174447,2000
19570.53924447766,15190.223180082225,-133370.44517641608,-187500.02235174447,-158525.6124765411,-187500.02235174447,-187500.02235174447,-187500.02235174447,2000
19557.128197804475,15183.42824976781,-133442.12722088423,-187500.02235174447,-158593.36061398513,-187500.02235174447,-187500.02235174447,-187500.02235174447,2000
19580.374012037995,15185.953996891261,-133462.3555496163,-187500.02235174447,-158601.89898036708,-187500.02235174447,-187500.02235174447,-187500.02235174447,2000
19605.40796582794,15197.129869118915,-133459.27100888145,-187500.02235174447,-158593.9864628299,-187500.02235174447,-187500.02235174447,-187500.02235174447,2000
19578.02707887019,15189.664386470842,-133540.25137904304,-187500.02235174447,-158671.2564434119,-187500.02235174447,-187500.02235174447,-187500.02235174447,2000
19551.24968901273,15166.820903637517,-133575.54478353797,-187500.02235174447,-158701.23013272646,-187500.02235174447,-187500.02235174447,-187500.02235174447,2000
19590.566407509614,15190.983139393706,-133604.5349960965,-187500.02235174447,-158725.74999639392,-187500.02235174447,-187500.02235174447,-187500.02235174447,2000
19609.20776238534,15213.53604954911,-133601.04812396146,-187500.02235174447,-158715.4011387111,-187500.02235174447,-187500.02235174447,-187500.02235174447,2000
19593.896817433455,15198.895656930883,-133673.95951437467,-187500.02235174447,-158786.479686079,-187500.02235174447,-187500.02235174447,-187500.02235174447,2000
19564.88425313047,15186.646900969376,-133781.35964648242,-187500.02235174447,-158887.68838497263,-187500.02235174447,-187500.02235174447,-187500.02235174447,2000
19581.69276496086,15186.825714925018,-133770.40729169935,-187500.02235174447,-158870.32107953087,-187500.02235174447,-187500.02235174447,-187500.02235174447,2000
19611.845268231067,15194.134735361904,-133750.80481181204,-187500.02235174447,-158847.27643099744,-187500.02235174447,-187500.02235174447,-187500.02235174447,2000
19597.36133782403,15191.564284749544,-133832.835713963,-187500.02235174447,-158922.53475457846,-187500.02235174447,-187500.02235174447,-187500.02235174447,2000
19567.320593276097,15181.595406722476,-133935.45257275732,-187500.02235174447,-159019.6977877257,-187500.02235174447,-187500.02235174447,-187500.02235174447,2000
19576.52951199168,15184.836409668496,-133961.58176202557,-187500.02235174447,-159042.9883054481,-187500.02235174447,-187500.02235174447,-187500.02235174447,2000
19610.70532926385,15191.76545044964,-133986.10162569306,-187500.02235174447,-159061.36143939037,-187500.02235174447,-187500.02235174447,-187500.02235174447,2000
19607.933712951388,15191.966616149739,-133986.14632918197,-187500.02235174447,-159057.20401492168,-187500.02235174447,-187500.02235174447,-187500.02235174447,2000
19588.711212719823,15195.006453395661,-134073.56400174665,-187500.02235174447,-159146.47688227618,-187500.02235174447,-187500.02235174447,-187500.02235174447,2000
19590.253483087243,15192.413651038845,-134141.37919442408,-187500.02235174447,-159203.317368426,-187500.02235174447,-187500.02235174447,-187500.02235174447,2000
19600.35647158104,15177.348575275968,-134126.9176157615,-187500.02235174447,-159177.83637974696,-187500.02235174447,-187500.02235174447,-187500.02235174447,2000
19603.284550104687,15188.300930059067,-134144.24021771434,-187500.02235174447,-159194.53313285508,-187500.02235174447,-187500.02235174447,-187500.02235174447,2000
19577.96002363682,15192.614816738942,-134238.78809676028,-187500.02235174447,-159278.62039549596,-187500.02235174447,-187500.02235174447,-187500.02235174447,2000
19564.839549641558,15182.109496844949,-134263.6879400835,-187500.02235174447,-159294.87011371495,-187500.02235174447,-187500.02235174447,-187500.02235174447,2000
19599.283587847185,15185.842238168985,-134230.40619258955,-187500.02235174447,-159262.54949123258,-187500.02235174447,-187500.02235174447,-187500.02235174447,2000
19612.31465486463,15191.296063816078,-134304.72574290345,-187500.02235174447,-159333.1586519669,-187500.02235174447,-187500.02235174447,-187500.02235174447,2000
19587.727735963792,15186.892770158383,-134343.6177782557,-187500.02235174447,-159363.5123209372,-187500.02235174447,-187500.02235174447,-187500.02235174447,2000
19571.16509332241,15186.736307947196,-134377.99476122795,-187500.02235174447,-159396.03410911968,-187500.02235174447,-187500.02235174447,-187500.02235174447,2000
19594.992052911766,15190.133773104404,-134433.71766015503,-187500.02235174447,-159446.66081031095,-187500.02235174447,-187500.02235174447,-187500.02235174447,2000
19628.273800405717,15191.00549113816,-134402.7157905955,-187500.02235174447,-159413.80374596166,-187500.02235174447,-187500.02235174447,-187500.02235174447,2000
19612.225247886807,15192.167781849836,-134485.77487299143,-187500.02235174447,-159498.74037489182,-187500.02235174447,-187500.02235174447,-187500.02235174447,2000
19578.474113759294,15183.517656745633,-134535.5075044045,-187500.02235174447,-159545.32141033668,-187500.02235174447,-187500.02235174447,-187500.02235174447,2000
19599.01536691372,15173.347613018468,-134516.86614952877,-187500.02235174447,-159522.45557575888,-187500.02235174447,-187500.02235174447,-187500.02235174447,2000
19622.9317334809,15198.359215063956,-134549.4549929446,-187500.02235174447,-159552.0045819288,-187500.02235174447,-187500.02235174447,-187500.02235174447,2000
19610.973550197312,15196.414613296345,-134591.74449345405,-187500.02235174447,-159583.5205416108,-187500.02235174447,-187500.02235174447,-187500.02235174447,2000
19580.284605060173,15186.356328291457,-134604.68615349368,-187500.02235174447,-159591.45541089243,-187500.02235174447,-187500.02235174447,-187500.02235174447,2000
19594.746183722757,15188.591502736987,-134674.84827933888,-187500.02235174447,-159662.24338558238,-187500.02235174447,-187500.02235174447,-187500.02235174447,2000
19623.40112011446,15198.470973786232,-134722.43514328424,-187500.02235174447,-159699.436688356,-187500.02235174447,-187500.02235174447,-187500.02235174447,2000
19610.54886705266,15192.77127895013,-134738.72956499216,-187500.02235174447,-159706.11985994814,-187500.02235174447,-187500.02235174447,-187500.02235174447,2000
19582.34096555006,15184.322319546023,-134781.60021085743,-187500.02235174447,-159750.46572094748,-187500.02235174447,-187500.02235174447,-187500.02235174447,2000
19599.864733203023,15180.701336944263,-134843.581598232,-187500.02235174447,-159810.48015480998,-187500.02235174447,-187500.02235174447,-187500.02235174447,2000
19622.663512547435,15190.111421359949,-134859.831316451,-187500.02235174447,-159815.88927696817,-187500.02235174447,-187500.02235174447,-187500.02235174447,2000
19601.317596592617,15199.72267147573,-134882.25011613968,-187500.02235174447,-159833.34598938777,-187500.02235174447,-187500.02235174447,-187500.02235174447,2000
19576.909491647424,15196.638130740897,-134971.4112247719,-187500.02235174447,-159919.6460747297,-187500.02235174447,-187500.02235174447,-187500.02235174447,2000
19575.903663146935,15189.865552170939,-134958.82719264357,-187500.02235174447,-159905.27390304493,-187500.02235174447,-187500.02235174447,-187500.02235174447,2000
19607.486678062283,15190.871380671428,-134983.95055341133,-187500.02235174447,-159933.97354292555,-187500.02235174447,-187500.02235174447,-187500.02235174447,2000
19611.241771130775,15194.760584206651,-135026.5753300876,-187500.02235174447,-159971.92680501068,-187500.02235174447,-187500.02235174447,-187500.02235174447,2000
19583.905587661935,15187.697432958776,-135047.49656289775,-187500.02235174447,-159986.43308716215,-187500.02235174447,-187500.02235174447,-187500.02235174447,2000
19568.59464271005,15170.106610072447,-135093.4964529868,-187500.02235174447,-160037.19389882017,-187500.02235174447,-187500.02235174447,-187500.02235174447,2000
19593.673299988903,15187.630377725409,-135133.77429649525,-187500.02235174447,-160071.10149515886,-187500.02235174447,-187500.02235174447,-187500.02235174447,2000
19613.45459383185,15201.91314243235,-135126.64409001402,-187500.02235174447,-160051.94605016065,-187500.02235174447,-187500.02235174447,-187500.02235174447,2000
19585.44785802935,15193.441831283788,-135183.97631454185,-187500.02235174447,-160111.17817296722,-187500.02235174447,-187500.02235174447,-187500.02235174447,2000
19564.30310777463,15184.344671290479,-135271.17046966203,-187500.02235174447,-160195.7124704972,-187500.02235174447,-187500.02235174447,-187500.02235174447,2000
19589.761744709223,15190.826677182518,-135292.35992340566,-187500.02235174447,-160208.40826134782,-187500.02235174447,-187500.02235174447,-187500.02235174447,2000
19618.774309012213,15225.20366015478,-135298.3278391752,-187500.02235174447,-160215.42670910677,-187500.02235174447,-187500.02235174447,-187500.02235174447,2000
19595.103811634042,15207.67989250182,-135368.73583420942,-187500.02235174447,-160287.51108497515,-187500.02235174447,-187500.02235174447,-187500.02235174447,2000
19566.24770954224,15172.654708940354,-135412.32173589728,-187500.02235174447,-160322.5362685366,-187500.02235174447,-187500.02235174447,-187500.02235174447,2000
19584.665546973414,15179.539046232589,-135400.22944214696,-187500.02235174447,-160302.30793980457,-187500.02235174447,-187500.02235174447,-187500.02235174447,2000
19619.31075087914,15200.884962187405,-135438.58503563228,-187500.02235174447,-160341.89287923492,-187500.02235174447,-187500.02235174447,-187500.02235174447,2000
19597.003709912744,15190.513752760144,-135508.5459957774,-187500.02235174447,-160406.89175211094,-187500.02235174447,-187500.02235174447,-187500.02235174447,2000
19560.659773428415,15183.271787556623,-135531.50123733297,-187500.02235174447,-160424.14729883044,-187500.02235174447,-187500.02235174447,-187500.02235174447,2000
19584.889064417966,15181.684813700298,-135540.28547290392,-187500.02235174447,-160437.29012457017,-187500.02235174447,-187500.02235174447,-187500.02235174447,2000
19619.06488169013,15187.317453303034,-135610.06761909337,-187500.02235174447,-160506.06644225915,-187500.02235174447,-187500.02235174447,-187500.02235174447,2000
19605.631483272493,15210.049177414081,-135645.83041022188,-187500.02235174447,-160531.56978268264,-187500.02235174447,-187500.02235174447,-187500.02235174447,2000
19577.378878280982,15207.232857612713,-135671.93724774566,-187500.02235174447,-160553.94387888242,-187500.02235174447,-187500.02235174447,-187500.02235174447,2000
19560.816235639602,15193.441831283788,-135727.07900131692,-187500.02235174447,-160613.913609256,-187500.02235174447,-187500.02235174447,-187500.02235174447,2000
19597.808372713134,15195.297026073578,-135761.545391267,-187500.02235174447,-160643.909650315,-187500.02235174447,-187500.02235174447,-187500.02235174447,2000
19602.0775559041,15202.404880810367,-135761.7465569671,-187500.02235174447,-160640.13220550207,-187500.02235174447,-187500.02235174447,-187500.02235174447,2000
19565.24188104175,15197.53220051911,-135823.21385421918,-187500.02235174447,-160698.8278864417,-187500.02235174447,-187500.02235174447,-187500.02235174447,2000
19560.324497261583,15192.704223716764,-135834.05445028,-187500.02235174447,-160701.1301161206,-187500.02235174447,-187500.02235174447,-187500.02235174447,2000
19599.21653261382,15211.949075692783,-135826.49956065413,-187500.02235174447,-160693.48581951688,-187500.02235174447,-187500.02235174447,-187500.02235174447,2000
19609.855962974547,15219.280447874124,-135893.28657308657,-187500.02235174447,-160757.30004993678,-187500.02235174447,-187500.02235174447,-187500.02235174447,2000
19570.516892733205,15187.473915514222,-135928.42351537032,-187500.02235174447,-160788.5924921742,-187500.02235174447,-187500.02235174447,-187500.02235174447,2000
19553.440159969352,15177.86266539844,-135974.75868162618,-187500.02235174447,-160838.43688230956,-187500.02235174447,-187500.02235174447,-187500.02235174447,2000
19588.912378419922,15193.240665583691,-136032.29207185414,-187500.02235174447,-160890.29292944586,-187500.02235174447,-187500.02235174447,-187500.02235174447,2000
19609.811259485636,15211.68085475932,-136031.9567956873,-187500.02235174447,-160881.64280434165,-187500.02235174447,-187500.02235174447,-187500.02235174447,2000
19581.29043356066,15197.085165630004,-136063.5621623471,-187500.02235174447,-160916.55622918086,-187500.02235174447,-187500.02235174447,-187500.02235174447,2000
19559.363372250005,15192.86068592795,-136148.43173604392,-187500.02235174447,-161001.87283776677,-187500.02235174447,-187500.02235174447,-187500.02235174447,2000
19585.872541174,15204.997683167183,-136148.92347442193,-187500.02235174447,-160993.71445104058,-187500.02235174447,-187500.02235174447,-187500.02235174447,2000
19605.251503616753,15199.700319731275,-136134.66306145943,-187500.02235174447,-160977.97882294405,-187500.02235174447,-187500.02235174447,-187500.02235174447,2000
19585.179637095887,15187.406860280857,-136192.01763773177,-187500.02235174447,-161039.49082368505,-187500.02235174447,-187500.02235174447,-187500.02235174447,2000
19552.434331468863,15185.350499790968,-136258.33526353067,-187500.02235174447,-161101.60632152634,-187500.02235174447,-187500.02235174447,-187500.02235174447,2000
19572.997936367745,15201.555514521066,-136244.34307150164,-187500.02235174447,-161083.05437362843,-187500.02235174447,-187500.02235174447,-187500.02235174447,2000
19608.78307924069,15223.929610720828,-136268.50530725782,-187500.02235174447,-161107.73069950708,-187500.02235174447,-187500.02235174447,-187500.02235174447,2000
19604.13391639399,15187.42921202531,-136352.14553500956,-187500.02235174447,-161185.80534288948,-187500.02235174447,-187500.02235174447,-187500.02235174447,2000
19546.57817442157,15173.772296163119,-136407.13082636963,-187500.02235174447,-161234.19686963523,-187500.02235174447,-187500.02235174447,-187500.02235174447,2000
19553.507215202717,15192.346595805479,-136376.97832309944,-187500.02235174447,-161203.61968322037,-187500.02235174447,-187500.02235174447,-187500.02235174447,2000
19591.818105199112,15202.538991277099,-136448.77212628987,-187500.02235174447,-161274.38530616587,-187500.02235174447,-187500.02235174447,-187500.02235174447,2000
19590.320538320608,15201.555514521066,-136496.0684175573,-187500.02235174447,-161315.35605375245,-187500.02235174447,-187500.02235174447,-187500.02235174447,2000
19557.61993618249,15190.647863226875,-136476.93532430354,-187500.02235174447,-161290.45621042923,-187500.02235174447,-187500.02235174447,-187500.02235174447,2000
19560.90564261742,15191.00549113816,-136529.50662726242,-187500.02235174447,-161343.5863069995,-187500.02235174447,-187500.02235174447,-187500.02235174447,2000
19587.817142941614,15197.263979585647,-136528.74666795097,-187500.02235174447,-161337.3725220409,-187500.02235174447,-187500.02235174447,-187500.02235174447,2000
19603.597474527058,15209.557439036065,-136596.91948853966,-187500.02235174447,-161404.338348429,-187500.02235174447,-187500.02235174447,-187500.02235174447,2000
19566.73944792026,15198.068642386037,-136635.47624772505,-187500.02235174447,-161439.31882850156,-187500.02235174447,-187500.02235174447,-187500.02235174447,2000
19557.217604782298,15194.134735361904,-136640.77361116096,-187500.02235174447,-161443.81152913708,-187500.02235174447,-187500.02235174447,-187500.02235174447,2000
19590.767573209712,15204.01420641115,-136658.67735846966,-187500.02235174447,-161454.58506996455,-187500.02235174447,-187500.02235174447,-187500.02235174447,2000
19601.876390204,15204.684758744808,-136671.507259787,-187500.02235174447,-161465.358610792,-187500.02235174447,-187500.02235174447,-187500.02235174447,2000
19571.9697561228,15209.780956480618,-136781.94722914067,-187500.02235174447,-161577.60907144655,-187500.02235174447,-187500.02235174447,-187500.02235174447,2000
19552.210814024307,15190.401994037868,-136840.03941298003,-187500.02235174447,-161630.02391219424,-187500.02235174447,-187500.02235174447,-187500.02235174447,2000
19573.26615730121,15183.495305001177,-136847.57195086146,-187500.02235174447,-161630.6050575501,-187500.02235174447,-187500.02235174447,-187500.02235174447,2000
19594.813238956125,15205.601180267477,-136826.0025174621,-187500.02235174447,-161608.61094100607,-187500.02235174447,-187500.02235174447,-187500.02235174447,2000
19567.141779320453,15203.902447688872,-136869.297846472,-187500.02235174447,-161648.84408102563,-187500.02235174447,-187500.02235174447,-187500.02235174447,2000
19546.86874709949,15200.4379272983,-136919.92454766328,-187500.02235174447,-161690.97711932388,-187500.02235174447,-187500.02235174447,-187500.02235174447,2000
19572.64030845646,15193.397127794879,-136905.73118993416,-187500.02235174447,-161678.34838370662,-187500.02235174447,-187500.02235174447,-187500.02235174447,2000
19609.587742041083,15199.476802286721,-136934.85551295945,-187500.02235174447,-161709.3726050106,-187500.02235174447,-187500.02235174447,-187500.02235174447,2000
19579.748163193246,15186.892770158383,-137011.47729295222,-187500.02235174447,-161778.0371639773,-187500.02235174447,-187500.02235174447,-187500.02235174447,2000
19531.71426435879,15190.491401015688,-137048.60354049248,-187500.02235174447,-161810.60365564868,-187500.02235174447,-187500.02235174447,-187500.02235174447,2000
19560.659773428415,15195.140563862393,-137023.86015938048,-187500.02235174447,-161789.57066411624,-187500.02235174447,-187500.02235174447,-187500.02235174447,2000
19588.48769527527,15211.926723948327,-137081.43825309732,-187500.02235174447,-161850.4568160125,-187500.02235174447,-187500.02235174447,-187500.02235174447,2000
19574.58491022407,15204.930627933816,-137137.20585551334,-187500.02235174447,-161900.07768870328,-187500.02235174447,-187500.02235174447,-187500.02235174447,2000
19546.801691866123,15197.19692435228,-137170.86758266302,-187500.02235174447,-161927.25740996093,-187500.02235174447,-187500.02235174447,-187500.02235174447,2000
19559.25161352773,15200.683796487308,-137189.12895788302,-187500.02235174447,-161945.78700611438,-187500.02235174447,-187500.02235174447,-187500.02235174447,2000
19578.45176201484,15200.259113342658,-137229.11622871354,-187500.02235174447,-161982.6897362101,-187500.02235174447,-187500.02235174447,-187500.02235174447,2000
19580.26225331572,15209.557439036065,-137261.41449945146,-187500.02235174447,-162015.9938354485,-187500.02235174447,-187500.02235174447,-187500.02235174447,2000
19549.796825623136,15193.240665583691,-137328.82736072867,-187500.02235174447,-162084.18900778165,-187500.02235174447,-187500.02235174447,-187500.02235174447,2000
19549.573308178584,15197.599255752475,-137310.25306108632,-187500.02235174447,-162060.58556563684,-187500.02235174447,-187500.02235174447,-187500.02235174447,2000
19587.548922008147,15197.040462141093,-137307.6602587295,-187500.02235174447,-162060.89849005922,-187500.02235174447,-187500.02235174447,-187500.02235174447,2000
19586.364279552017,15194.067680128537,-137409.11482681215,-187500.02235174447,-162162.6212790753,-187500.02235174447,-187500.02235174447,-187500.02235174447,2000
19553.82013962509,15194.201790595269,-137457.01461517985,-187500.02235174447,-162202.85441909486,-187500.02235174447,-187500.02235174447,-187500.02235174447,2000
19545.617049409993,15191.161953349347,-137441.1895801055,-187500.02235174447,-162185.59887237535,-187500.02235174447,-187500.02235174447,-187500.02235174447,2000
19576.97654688079,15198.918008675339,-137461.52966755984,-187500.02235174447,-162211.01280582105,-187500.02235174447,-187500.02235174447,-187500.02235174447,2000
19591.035794143176,15199.29798833108,-137475.16423167757,-187500.02235174447,-162219.50646871407,-187500.02235174447,-187500.02235174447,-187500.02235174447,2000
19566.180654308875,15196.727537718718,-137486.4071591386,-187500.02235174447,-162233.36455027637,-187500.02235174447,-187500.02235174447,-187500.02235174447,2000
19542.711322630803,15195.609950495953,-137571.99198865797,-187500.02235174447,-162320.93868505224,-187500.02235174447,-187500.02235174447,-187500.02235174447,2000
19569.667526443904,15198.649787741875,-137610.36993388773,-187500.02235174447,-162353.39341800136,-187500.02235174447,-187500.02235174447,-187500.02235174447,2000
19594.768535467214,15199.409747053356,-137618.39421014718,-187500.02235174447,-162359.18251981528,-187500.02235174447,-187500.02235174447,-187500.02235174447,2000
19579.63640447097,15198.918008675339,-137693.11609186127,-187500.02235174447,-162433.345607918,-187500.02235174447,-187500.02235174447,-187500.02235174447,2000
19542.82308135308,15197.509848774655,-137686.3882167802,-187500.02235174447,-162424.02493048014,-187500.02235174447,-187500.02235174447,-187500.02235174447,2000
19559.63159318347,15197.308683074556,-137656.50393444346,-187500.02235174447,-162396.66639526683,-187500.02235174447,-187500.02235174447,-187500.02235174447,2000
19592.15338136594,15192.10072661647,-137709.1646443802,-187500.02235174447,-162449.01418078115,-187500.02235174447,-187500.02235174447,-187500.02235174447,2000
19578.988203881767,15195.811116196051,-137785.2276307616,-187500.02235174447,-162520.58446652704,-187500.02235174447,-187500.02235174447,-187500.02235174447,2000
19558.73752340526,15189.53027600411,-137834.96026217466,-187500.02235174447,-162565.24325194876,-187500.02235174447,-187500.02235174447,-187500.02235174447,2000
19558.424598982885,15182.265959056134,-137865.80566952296,-187500.02235174447,-162596.40158371945,-187500.02235174447,-187500.02235174447,-187500.02235174447,2000
19580.23990157126,15197.800421452574,-137893.41007392528,-187500.02235174447,-162621.77081367624,-187500.02235174447,-187500.02235174447,-187500.02235174447,2000
19571.500369489237,15201.711976732253,-137864.95630323366,-187500.02235174447,-162589.65135689394,-187500.02235174447,-187500.02235174447,-187500.02235174447,2000
19547.449892455326,15201.667273243342,-137889.27500120105,-187500.02235174447,-162620.67557819793,-187500.02235174447,-187500.02235174447,-187500.02235174447,2000
19547.852223855523,15192.883037672405,-137954.2068188437,-187500.02235174447,-162684.06512547316,-187500.02235174447,-187500.02235174447,-187500.02235174447,2000
19572.21562531181,15185.57401723552,-137953.24569383214,-187500.02235174447,-162674.9009102465,-187500.02235174447,-187500.02235174447,-187500.02235174447,2000
19580.86575041601,15192.525409761121,-137940.86282740388,-187500.02235174447,-162664.46264558585,-187500.02235174447,-187500.02235174447,-187500.02235174447,2000
19549.841529112047,15186.71395620274,-138012.70133408325,-187500.02235174447,-162739.09512032213,-187500.02235174447,-187500.02235174447,-187500.02235174447,2000
19539.045636540133,15191.43017428281,-138082.72934946173,-187500.02235174447,-162803.87047575362,-187500.02235174447,-187500.02235174447,-187500.02235174447,2000
19569.913395632913,15194.157087106358,-138076.9402476478,-187500.02235174447,-162796.2261791499,-187500.02235174447,-187500.02235174447,-187500.02235174447,2000
19577.915320147913,15198.359215063956,-138130.87500701845,-187500.02235174447,-162847.72459837492,-187500.02235174447,-187500.02235174447,-187500.02235174447,2000
19545.05825579861,15190.96078764925,-138196.54443222814,-187500.02235174447,-162907.2472938594,-187500.02235174447,-187500.02235174447,-187500.02235174447,2000
19528.562668390594,15184.098802101471,-138211.36363880202,-187500.02235174447,-162919.07136667627,-187500.02235174447,-187500.02235174447,-187500.02235174447,2000
19563.45374148533,15191.72074696073,-138200.74656018574,-187500.02235174447,-162912.9916921844,-187500.02235174447,-187500.02235174447,-187500.02235174447,2000
19580.329308549084,15199.521505775632,-138288.41010193946,-187500.02235174447,-162997.39187924768,-187500.02235174447,-187500.02235174447,-187500.02235174447,2000
19552.25551751322,15192.10072661647,-138349.45271604692,-187500.02235174447,-163051.1925281516,-187500.02235174447,-187500.02235174447,-187500.02235174447,2000
19545.505290687717,15184.411726523844,-138318.8978813765,-187500.02235174447,-163016.54732424585,-187500.02235174447,-187500.02235174447,-187500.02235174447,2000
19572.43914275636,15193.955921406261,-138318.6520121875,-187500.02235174447,-163021.71057721504,-187500.02235174447,-187500.02235174447,-187500.02235174447,2000
19584.889064417966,15203.29895058858,-138387.13775719856,-187500.02235174447,-163088.13996173622,-187500.02235174447,-187500.02235174447,-187500.02235174447,2000
19565.577157208583,15193.866514428439,-138438.9714525904,-187500.02235174447,-163135.4586047481,-187500.02235174447,-187500.02235174447,-187500.02235174447,2000
19534.10590101551,15182.400069522868,-138421.04535353725,-187500.02235174447,-163115.7443661385,-187500.02235174447,-187500.02235174447,-187500.02235174447,2000
19559.9668693503,15197.018110396637,-138423.45934193843,-187500.02235174447,-163124.01451158698,-187500.02235174447,-187500.02235174447,-187500.02235174447,2000
19589.53822726467,15201.95784592126,-138486.26774385784,-187500.02235174447,-163181.8161227484,-187500.02235174447,-187500.02235174447,-187500.02235174447,2000
19577.53534049217,15200.594389509486,-138497.57772655223,-187500.02235174447,-163181.43614309267,-187500.02235174447,-187500.02235174447,-187500.02235174447,2000
19552.747255891234,15193.777107450618,-138494.98492419542,-187500.02235174447,-163177.70340176864,-187500.02235174447,-187500.02235174447,-187500.02235174447,2000
19565.39834325294,15196.81694469654,-138558.97796857095,-187500.02235174447,-163243.66339965625,-187500.02235174447,-187500.02235174447,-187500.02235174447,2000
19602.613997771026,15203.72363373323,-138577.9993031024,-187500.02235174447,-163257.54383296298,-187500.02235174447,-187500.02235174447,-187500.02235174447,2000
19596.824895957103,15193.710052217253,-138610.34227732924,-187500.02235174447,-163292.54666478,-187500.02235174447,-187500.02235174447,-187500.02235174447,2000
19553.082532058066,15190.156124848858,-138668.30035070187,-187500.02235174447,-163347.8672323069,-187500.02235174447,-187500.02235174447,-187500.02235174447,2000
19563.073761829586,15199.454450542265,-138695.6365341707,-187500.02235174447,-163368.81081686149,-187500.02235174447,-187500.02235174447,-187500.02235174447,2000
19600.490582047772,15207.098747145981,-138700.37510399523,-187500.02235174447,-163375.42693322027,-187500.02235174447,-187500.02235174447,-187500.02235174447,2000
19598.322462835607,15203.120136632937,-138762.42354660315,-187500.02235174447,-163441.54339331907,-187500.02235174447,-187500.02235174447,-187500.02235174447,2000
19562.090285073555,15195.185267351302,-138788.73154982706,-187500.02235174447,-163462.9787162517,-187500.02235174447,-187500.02235174447,-187500.02235174447,2000
19558.402247238428,15192.726575461218,-138802.63433487827,-187500.02235174447,-163477.5967571255,-187500.02235174447,-187500.02235174447,-187500.02235174447,2000
19592.622767999503,15200.370872064934,-138828.83057937986,-187500.02235174447,-163504.15062953837,-187500.02235174447,-187500.02235174447,-187500.02235174447,2000
19602.770459982214,15207.881058201918,-138837.88303588427,-187500.02235174447,-163505.17880978333,-187500.02235174447,-187500.02235174447,-187500.02235174447,2000
19566.62768919798,15201.711976732253,-138858.55839950545,-187500.02235174447,-163528.13405133892,-187500.02235174447,-187500.02235174447,-187500.02235174447,2000
19559.318668761098,15185.015223624137,-138923.82549331494,-187500.02235174447,-163594.98811900476,-187500.02235174447,-187500.02235174447,-187500.02235174447,2000
19594.947349422855,15195.76641270714,-138915.51064437756,-187500.02235174447,-163578.53723508565,-187500.02235174447,-187500.02235174447,-187500.02235174447,2000
19599.574160525102,15210.205639625268,-138900.87025175933,-187500.02235174447,-163566.19907214632,-187500.02235174447,-187500.02235174447,-187500.02235174447,2000
19580.23990157126,15200.996720909683,-138982.8564504214,-187500.02235174447,-163649.1240440755,-187500.02235174447,-187500.02235174447,-187500.02235174447,2000
19546.935802332857,15195.72170921823,-139015.7135147707,-187500.02235174447,-163676.0355443997,-187500.02235174447,-187500.02235174447,-187500.02235174447,2000
19571.790942167157,15220.129814163425,-139004.4482355652,-187500.02235174447,-163663.94325064938,-187500.02235174447,-187500.02235174447,-187500.02235174447,2000
19599.618864014014,15216.061796672559,-139051.7221750882,-187500.02235174447,-163713.87704776254,-187500.02235174447,-187500.02235174447,-187500.02235174447,2000
19573.847302657046,15185.417555024333,-139102.32652453502,-187500.02235174447,-163757.8652808506,-187500.02235174447,-187500.02235174447,-187500.02235174447,2000
19548.075741300076,15178.935549132295,-139124.74532422368,-187500.02235174447,-163779.63587995004,-187500.02235174447,-187500.02235174447,-187500.02235174447,2000
19571.321555533596,15186.691604458287,-139141.82205698753,-187500.02235174447,-163804.78159246227,-187500.02235174447,-187500.02235174447,-187500.02235174447,2000
19593.695651733356,15199.588561008999,-139181.89873479592,-187500.02235174447,-163841.25963941333,-187500.02235174447,-187500.02235174447,-187500.02235174447,2000
19580.217549826808,15209.289218102602,-139174.61206610347,-187500.02235174447,-163831.55898231972,-187500.02235174447,-187500.02235174447,-187500.02235174447,2000
19549.61801166749,15185.864589913439,-139223.78590390514,-187500.02235174447,-163886.09723879068,-187500.02235174447,-187500.02235174447,-187500.02235174447,2000
19557.508177460215,15176.633319453398,-139253.82664845308,-187500.02235174447,-163910.1924193135,-187500.02235174447,-187500.02235174447,-187500.02235174447,2000
19595.01440465622,15194.67117722883,-139231.38549701995,-187500.02235174447,-163882.923291078,-187500.02235174447,-187500.02235174447,-187500.02235174447,2000
19593.561541266627,15207.635189012908,-139270.50104981675,-187500.02235174447,-163926.0398061323,-187500.02235174447,-187500.02235174447,-187500.02235174447,2000
19558.0669710716,15198.96271216425,-139341.46783846235,-187500.02235174447,-163997.87831281166,-187500.02235174447,-187500.02235174447,-187500.02235174447,2000
19555.40711348142,15197.286331330102,-139375.8448214346,-187500.02235174447,-164031.2718190279,-187500.02235174447,-187500.02235174447,-187500.02235174447,2000
19590.052317387144,15195.073508629026,-139365.63007421853,-187500.02235174447,-164025.50506895842,-187500.02235174447,-187500.02235174447,-187500.02235174447,2000
19598.993015169264,15197.442793541288,-139404.81268224868,-187500.02235174447,-164068.26395610144,-187500.02235174447,-187500.02235174447,-187500.02235174447,2000
19570.472189244294,15185.417555024333,-139439.18966522094,-187500.02235174447,-164096.225988415,-187500.02235174447,-187500.02235174447,-187500.02235174447,2000
19548.031037811164,15178.95790087675,-139486.84358439967,-187500.02235174447,-164139.81189010286,-187500.02235174447,-187500.02235174447,-187500.02235174447,2000
19572.48384624527,15194.514715017644,-139470.10212780265,-187500.02235174447,-164126.93728529662,-187500.02235174447,-187500.02235174447,-187500.02235174447,2000
19593.516837777715,15202.717805232742,-139530.92122446554,-187500.02235174447,-164189.94685291612,-187500.02235174447,-187500.02235174447,-187500.02235174447,2000
19558.0669710716,15193.553590006066,-139588.05228329328,-187500.02235174447,-164243.9263157757,-187500.02235174447,-187500.02235174447,-187500.02235174447,2000
19540.498499929727,15187.160991091847,-139586.77823385934,-187500.02235174447,-164239.5677256069,-187500.02235174447,-187500.02235174447,-187500.02235174447,2000
19571.701535189335,15194.380604550912,-139542.20885541546,-187500.02235174447,-164200.56393153238,-187500.02235174447,-187500.02235174447,-187500.02235174447,2000
19595.416736056417,15199.946188920283,-139620.84229240922,-187500.02235174447,-164283.6677174172,-187500.02235174447,-187500.02235174447,-187500.02235174447,2000
19563.34198276305,15194.492363273188,-139687.38343565268,-187500.02235174447,-164343.14570941278,-187500.02235174447,-187500.02235174447,-187500.02235174447,2000
19544.72297963178,15195.565247007044,-139717.06655228933,-187500.02235174447,-164368.96197425868,-187500.02235174447,-187500.02235174447,-187500.02235174447,2000
19572.930881134376,15207.858706457462,-139680.87907801618,-187500.02235174447,-164336.84251747638,-187500.02235174447,-187500.02235174447,-187500.02235174447,2000
19584.464381273316,15197.979235408216,-139709.66812487462,-187500.02235174447,-164364.82690153443,-187500.02235174447,-187500.02235174447,-187500.02235174447,2000
19568.080552587577,15200.125002875926,-139716.5748139113,-187500.02235174447,-164369.02902949203,-187500.02235174447,-187500.02235174447,-187500.02235174447,2000
19535.111729516,15191.608988238453,-139823.21498670758,-187500.02235174447,-164478.53022557858,-187500.02235174447,-187500.02235174447,-187500.02235174447,2000
19556.18942453735,15198.538029019599,-139859.24599876953,-187500.02235174447,-164511.16377248333,-187500.02235174447,-187500.02235174447,-187500.02235174447,2000
19587.705384219335,15208.998645424683,-139817.4482366381,-187500.02235174447,-164466.88496671736,-187500.02235174447,-187500.02235174447,-187500.02235174447,2000
19575.322517791097,15208.775127980129,-139858.30722550242,-187500.02235174447,-164511.2755312056,-187500.02235174447,-187500.02235174447,-187500.02235174447,2000
19541.19140400784,15184.85876141295,-139919.34983960984,-187500.02235174447,-164568.585403989,-187500.02235174447,-187500.02235174447,-187500.02235174447,2000
19549.26038375621,15192.011319638648,-139890.44903402915,-187500.02235174447,-164541.9868280872,-187500.02235174447,-187500.02235174447,-187500.02235174447,2000
19579.859921915522,15202.449584299278,-139930.2798426485,-187500.02235174447,-164588.56786353205,-187500.02235174447,-187500.02235174447,-187500.02235174447,2000
19575.30016604664,15208.641017513397,-139997.49153822561,-187500.02235174447,-164653.99141955274,-187500.02235174447,-187500.02235174447,-187500.02235174447,2000
19547.53929943315,15200.81790695404,-140004.64409645132,-187500.02235174447,-164660.04874230013,-187500.02235174447,-187500.02235174447,-187500.02235174447,2000
19557.23995652675,15197.465145285743,-140044.29609111501,-187500.02235174447,-164701.7794491982,-187500.02235174447,-187500.02235174447,-187500.02235174447,2000
19572.081514845075,15205.109441889459,-140062.53511459054,-187500.02235174447,-164712.66474874792,-187500.02235174447,-187500.02235174447,-187500.02235174447,2000
19575.188407324364,15214.363064093955,-140067.92188500427,-187500.02235174447,-164720.64432151848,-187500.02235174447,-187500.02235174447,-187500.02235174447,2000
19550.400322723428,15207.657540757364,-140120.9178711078,-187500.02235174447,-164776.61308963457,-187500.02235174447,-187500.02235174447,-187500.02235174447,2000
19542.53250867516,15192.994796394683,-140161.9333221833,-187500.02235174447,-164817.22620930985,-187500.02235174447,-187500.02235174447,-187500.02235174447,2000
19566.404171753427,15204.72946223372,-140111.84306285897,-187500.02235174447,-164771.47218840983,-187500.02235174447,-187500.02235174447,-187500.02235174447,2000
19588.465343530817,15214.117194904948,-140160.45810704926,-187500.02235174447,-164826.85981117008,-187500.02235174447,-187500.02235174447,-187500.02235174447,2000
19559.855110628025,15206.15997387886,-140210.63777335142,-187500.02235174447,-164877.0171257278,-187500.02235174447,-187500.02235174447,-187500.02235174447,2000
19533.949438804324,15188.524447503622,-140224.92053805836,-187500.02235174447,-164888.28240493327,-187500.02235174447,-187500.02235174447,-187500.02235174447,2000
19559.25161352773,15190.357290548956,-140196.17619468883,-187500.02235174447,-164860.8121109977,-187500.02235174447,-187500.02235174447,-187500.02235174447,2000
19594.0756313891,15220.330979863524,-140198.21020343425,-187500.02235174447,-164869.70810529092,-187500.02235174447,-187500.02235174447,-187500.02235174447,2000
19570.606299711028,15218.900468218384,-140300.53648955066,-187500.02235174447,-164973.55431003027,-187500.02235174447,-187500.02235174447,-187500.02235174447,2000
19539.40326445142,15190.5361045046,-140338.15447546894,-187500.02235174447,-165008.37832789164,-187500.02235174447,-187500.02235174447,-187500.02235174447,2000
19567.09707583154,15193.57594175052,-140333.95234751134,-187500.02235174447,-164997.53773183082,-187500.02235174447,-187500.02235174447,-187500.02235174447,2000
19590.029965642687,15209.937418691805,-140292.2663441022,-187500.02235174447,-164958.86921392314,-187500.02235174447,-187500.02235174447,-187500.02235174447,2000
19562.82789264058,15205.19884886728,-140363.30018798116,-187500.02235174447,-165034.8427933267,-187500.02235174447,-187500.02235174447,-187500.02235174447,2000
19539.9620580628,15197.308683074556,-140422.04057240972,-187500.02235174447,-165090.58804399826,-187500.02235174447,-187500.02235174447,-187500.02235174447,2000
19557.284660015663,15202.382529065912,-140419.55952877516,-187500.02235174447,-165085.67066021808,-187500.02235174447,-187500.02235174447,-187500.02235174447,2000
19585.693727218357,15213.379587337922,-140427.82967422364,-187500.02235174447,-165097.2712155904,-187500.02235174447,-187500.02235174447,-187500.02235174447,2000
19579.144666092954,15209.557439036065,-140462.7654508073,-187500.02235174447,-165127.982512472,-187500.02235174447,-187500.02235174447,-187500.02235174447,2000
19548.321610489085,15200.48263078721,-140475.0589102577,-187500.02235174447,-165143.65108533515,-187500.02235174447,-187500.02235174447,-187500.02235174447,2000
19551.67437215738,15197.554552263566,-140503.82560537168,-187500.02235174447,-165173.71418162755,-187500.02235174447,-187500.02235174447,-187500.02235174447,2000
19586.520741763205,15209.110404146959,-140489.14050926454,-187500.02235174447,-165157.46446340854,-187500.02235174447,-187500.02235174447,-187500.02235174447,2000
19587.39245979696,15214.58658153851,-140526.2220533159,-187500.02235174447,-165193.60723419278,-187500.02235174447,-187500.02235174447,-187500.02235174447,2000
19553.82013962509,15200.370872064934,-140583.26370516582,-187500.02235174447,-165245.61974354027,-187500.02235174447,-187500.02235174447,-187500.02235174447,2000
19549.68506690086,15198.113345874948,-140584.2248301774,-187500.02235174447,-165249.21837439758,-187500.02235174447,-187500.02235174447,-187500.02235174447,2000
19583.056221372633,15208.417500068845,-140625.53085393083,-187500.02235174447,-165289.83149407286,-187500.02235174447,-187500.02235174447,-187500.02235174447,2000
19592.063974388122,15211.367930336944,-140631.02938306684,-187500.02235174447,-165294.88298831976,-187500.02235174447,-187500.02235174447,-187500.02235174447,2000
19561.218567039796,15207.970465179738,-140688.51806980587,-187500.02235174447,-165359.01014316204,-187500.02235174447,-187500.02235174447,-187500.02235174447,2000
19548.746293633736,15197.688662730297,-140727.38775341367,-187500.02235174447,-165396.6951843137,-187500.02235174447,-187500.02235174447,-187500.02235174447,2000
19580.597529482548,15200.326168576023,-140702.01852345688,-187500.02235174447,-165367.52615779953,-187500.02235174447,-187500.02235174447,-187500.02235174447,2000
19594.813238956125,15214.139546649403,-140700.16332866708,-187500.02235174447,-165370.4318845787,-187500.02235174447,-187500.02235174447,-187500.02235174447,2000
19568.818160154602,15206.897581445883,-140784.60821921926,-187500.02235174447,-165454.72031291967,-187500.02235174447,-187500.02235174447,-187500.02235174447,2000
19551.897889601933,15194.201790595269,-140827.21064415106,-187500.02235174447,-165493.72410699417,-187500.02235174447,-187500.02235174447,-187500.02235174447,2000
19582.475076016795,15200.370872064934,-140826.51774007294,-187500.02235174447,-165494.30525235002,-187500.02235174447,-187500.02235174447,-187500.02235174447,2000
19589.35941330903,15220.10746241897,-140875.6021708968,-187500.02235174447,-165546.04954076404,-187500.02235174447,-187500.02235174447,-187500.02235174447,2000
19573.176750323386,15212.954904193271,-140901.46313923158,-187500.02235174447,-165570.52470094262,-187500.02235174447,-187500.02235174447,-187500.02235174447,2000
19551.897889601933,15201.555514521066,-140888.0520925584,-187500.02235174447,-165563.01451480563,-187500.02235174447,-187500.02235174447,-187500.02235174447,2000
19563.856072885523,15205.064738400548,-140959.73413702656,-187500.02235174447,-165637.91521047536,-187500.02235174447,-187500.02235174447,-187500.02235174447,2000
19593.181561610887,15207.143450634892,-140933.85081694732,-187500.02235174447,-165611.8977799294,-187500.02235174447,-187500.02235174447,-187500.02235174447,2000
19583.994994639754,15197.19692435228,-140960.13646842676,-187500.02235174447,-165643.23492565574,-187500.02235174447,-187500.02235174447,-187500.02235174447,2000
19547.181671521863,15201.577866265521,-141028.30928901545,-187500.02235174447,-165709.84312413255,-187500.02235174447,-187500.02235174447,-187500.02235174447,2000
19554.714209403304,15202.404880810367,-141054.86316142837,-187500.02235174447,-165734.05006337762,-187500.02235174447,-187500.02235174447,-187500.02235174447,2000
19595.88612268998,15212.709035004264,-141015.72525688712,-187500.02235174447,-165700.00835657222,-187500.02235174447,-187500.02235174447,-187500.02235174447,2000
19587.146590607954,15219.615724040954,-141068.0953941459,-187500.02235174447,-165754.9712961878,-187500.02235174447,-187500.02235174447,-187500.02235174447,2000
19549.975639578777,15199.72267147573,-141088.0555019445,-187500.02235174447,-165772.20449116285,-187500.02235174447,-187500.02235174447,-187500.02235174447,2000
19558.335192005063,15204.573000022532,-141097.97967648265,-187500.02235174447,-165786.9342907589,-187500.02235174447,-187500.02235174447,-187500.02235174447,2000
19599.440050058372,15251.958698267783,-141149.09811605193,-187500.02235174447,-165836.77868089423,-187500.02235174447,-187500.02235174447,-187500.02235174447,2000
19587.63832898597,15225.15895666587,-141162.55386621403,-187500.02235174447,-165846.16641356546,-187500.02235174447,-187500.02235174447,-187500.02235174447,2000
19560.1680350504,15176.990947364682,-141222.5459483321,-187500.02235174447,-165913.84749577614,-187500.02235174447,-187500.02235174447,-187500.02235174447,2000
19546.175843021374,15189.4855725152,-141278.2464955147,-187500.02235174447,-165969.88331912557,-187500.02235174447,-187500.02235174447,-187500.02235174447,2000
19568.996974110243,15202.96367442175,-141248.25045445567,-187500.02235174447,-165937.18271698747,-187500.02235174447,-187500.02235174447,-187500.02235174447,2000
19587.347756308052,15212.01613092615,-141261.4379836843,-187500.02235174447,-165956.04758930774,-187500.02235174447,-187500.02235174447,-187500.02235174447,2000
19557.977564093777,15202.404880810367,-141292.61866719945,-187500.02235174447,-165988.79289493477,-187500.02235174447,-187500.02235174447,-187500.02235174447,2000
19547.91927908889,15199.521505775632,-141299.03361785813,-187500.02235174447,-165997.06304038325,-187500.02235174447,-187500.02235174447,-187500.02235174447,2000
19580.552825993636,15217.447604828789,-141312.19879534232,-187500.02235174447,-166012.3739853351,-187500.02235174447,-187500.02235174447,-187500.02235174447,2000
19597.651910501947,15220.398035096889,-141347.7157172818,-187500.02235174447,-166043.30879966126,-187500.02235174447,-187500.02235174447,-187500.02235174447,2000
19573.333212534573,15209.400976824878,-141350.7555545277,-187500.02235174447,-166051.13191022063,-187500.02235174447,-187500.02235174447,-187500.02235174447,2000
19547.852223855523,15202.069604643537,-141387.79239509016,-187500.02235174447,-166097.4670764765,-187500.02235174447,-187500.02235174447,-187500.02235174447,2000
19569.242843299253,15215.078319916525,-141379.85752580853,-187500.02235174447,-166087.0958670492,-187500.02235174447,-187500.02235174447,-187500.02235174447,2000
19598.233055857785,15226.812985755561,-141431.19948282235,-187500.02235174447,-166134.83919320576,-187500.02235174447,-187500.02235174447,-187500.02235174447,2000
19575.791904424656,15217.268790873146,-141444.31995681764,-187500.02235174447,-166147.0655974228,-187500.02235174447,-187500.02235174447,-187500.02235174447,2000
19548.567479678095,15204.863572700451,-141495.5054516203,-187500.02235174447,-166203.0343655389,-187500.02235174447,-187500.02235174447,-187500.02235174447,2000
19575.233110813275,15203.835392455507,-141493.0914632191,-187500.02235174447,-166197.28996721387,-187500.02235174447,-187500.02235174447,-187500.02235174447,2000
19595.9755296678,15226.790634011108,-141456.68047150143,-187500.02235174447,-166163.00239121943,-187500.02235174447,-187500.02235174447,-187500.02235174447,2000
19582.11744810551,15220.398035096889,-141548.18851330143,-187500.02235174447,-166255.22568884204,-187500.02235174447,-187500.02235174447,-187500.02235174447,2000
19549.215680267298,15201.264941843147,-141603.93376397298,-187500.02235174447,-166311.1050499803,-187500.02235174447,-187500.02235174447,-187500.02235174447,2000
19557.083494315564,15205.91410468985,-141599.12813891508,-187500.02235174447,-166311.3062156804,-187500.02235174447,-187500.02235174447,-187500.02235174447,2000
19594.50031453375,15213.334883849013,-141631.35935441963,-187500.02235174447,-166344.2079835186,-187500.02235174447,-187500.02235174447,-187500.02235174447,2000
19609.185410640886,15218.92281996284,-141631.85109279765,-187500.02235174447,-166342.263381751,-187500.02235174447,-187500.02235174447,-187500.02235174447,2000
19557.0164390822,15219.839241485506,-141659.47784894443,-187500.02235174447,-166380.6189752363,-187500.02235174447,-187500.02235174447,-187500.02235174447,2000
19548.992162822746,15215.838279228006,-141701.83440468722,-187500.02235174447,-166424.65191181327,-187500.02235174447,-187500.02235174447,-187500.02235174447,2000
19584.285567317675,15220.10746241897,-141677.44865148648,-187500.02235174447,-166400.2214551236,-187500.02235174447,-187500.02235174447,-187500.02235174447,2000
19598.188352368874,15221.91795371985,-141681.02493059932,-187500.02235174447,-166411.6208447958,-187500.02235174447,-187500.02235174447,-187500.02235174447,2000
19567.25353804273,15215.055968172072,-141760.73125132697,-187500.02235174447,-166492.8917876353,-187500.02235174447,-187500.02235174447,-187500.02235174447,2000
19551.808482624114,15206.785822723607,-141802.99840009195,-187500.02235174447,-166534.04134917754,-187500.02235174447,-187500.02235174447,-187500.02235174447,2000
19580.038735871167,15220.174517652336,-141787.55334467333,-187500.02235174447,-166519.57977051495,-187500.02235174447,-187500.02235174447,-187500.02235174447,2000
19597.249579101754,15225.941267721806,-141812.90022288566,-187500.02235174447,-166554.0014569761,-187500.02235174447,-187500.02235174447,-187500.02235174447,2000
19566.24770954224,15213.021959426638,-141870.09833694677,-187500.02235174447,-166612.94300710477,-187500.02235174447,-187500.02235174447,-187500.02235174447,2000
19545.661752898905,15212.01613092615,-141877.96615099505,-187500.02235174447,-166617.323949018,-187500.02235174447,-187500.02235174447,-187500.02235174447,2000
19573.512026490214,15220.509793819165,-141852.57456929382,-187500.02235174447,-166593.58639640646,-187500.02235174447,-187500.02235174447,-187500.02235174447,2000
19595.103811634042,15227.997628211693,-141905.32468620833,-187500.02235174447,-166650.47158604523,-187500.02235174447,-187500.02235174447,-187500.02235174447,2000
19573.6684887014,15217.045273428594,-141954.8114484324,-187500.02235174447,-166695.66681333387,-187500.02235174447,-187500.02235174447,-187500.02235174447,2000
19536.832813839057,15210.406805325367,-141943.16618957117,-187500.02235174447,-166687.21785392976,-187500.02235174447,-187500.02235174447,-187500.02235174447,2000
19558.268136771698,15220.085110674514,-141927.43056147464,-187500.02235174447,-166680.62408931545,-187500.02235174447,-187500.02235174447,-187500.02235174447,2000
19590.387593553973,15225.516584577153,-141991.60241980583,-187500.02235174447,-166744.08069182406,-187500.02235174447,-187500.02235174447,-187500.02235174447,2000
19573.0202881122,15215.01126468316,-142032.34964994786,-187500.02235174447,-166780.6257940085,-187500.02235174447,-187500.02235174447,-187500.02235174447,2000
19539.82794759607,15211.68085475932,-142038.89871107324,-187500.02235174447,-166786.5266545447,-187500.02235174447,-187500.02235174447,-187500.02235174447,2000
19566.605337453526,15217.469956573244,-142092.27467683252,-187500.02235174447,-166843.34478895008,-187500.02235174447,-187500.02235174447,-187500.02235174447,2000
19594.12033487801,15230.501023590688,-142083.35633079486,-187500.02235174447,-166832.59359986708,-187500.02235174447,-187500.02235174447,-187500.02235174447,2000
19563.073761829586,15213.737215249208,-142080.00356912657,-187500.02235174447,-166835.34286443508,-187500.02235174447,-187500.02235174447,-187500.02235174447,2000
19541.973715063777,15215.458299572267,-142128.30568889447,-187500.02235174447,-166883.55557722517,-187500.02235174447,-187500.02235174447,-187500.02235174447,2000
19547.91927908889,15216.419424583844,-142150.76919207207,-187500.02235174447,-166903.15805711248,-187500.02235174447,-187500.02235174447,-187500.02235174447,2000
19577.58004398108,15222.521450820142,-142123.43300860323,-187500.02235174447,-166884.2931847922,-187500.02235174447,-187500.02235174447,-187500.02235174447,2000
19582.49742776125,15230.72454103524,-142173.59032316093,-187500.02235174447,-166940.35135988612,-187500.02235174447,-187500.02235174447,-187500.02235174447,2000
19547.449892455326,15216.732349006219,-142250.61443455392,-187500.02235174447,-167018.6718724575,-187500.02235174447,-187500.02235174447,-187500.02235174447,2000
19541.48197668576,15208.685721002308,-142237.60571928092,-187500.02235174447,-167004.5679217062,-187500.02235174447,-187500.02235174447,-187500.02235174447,2000
19573.646136956948,15219.325151363035,-142151.9985380171,-187500.02235174447,-166922.7605369998,-187500.02235174447,-187500.02235174447,-187500.02235174447,2000
19579.83757017107,15226.321247377546,-142188.3648262459,-187500.02235174447,-166965.11709274258,-187500.02235174447,-187500.02235174447,-187500.02235174447,2000
19542.554860419616,15219.280447874124,-142254.95067297824,-187500.02235174447,-167026.2267620834,-187500.02235174447,-187500.02235174447,-187500.02235174447,2000
19533.882383570955,15225.985971210715,-142328.28674653612,-187500.02235174447,-167094.82426581674,-187500.02235174447,-187500.02235174447,-187500.02235174447,2000
19564.68308743037,15228.377607867433,-142336.62394721794,-187500.02235174447,-167106.42482118902,-187500.02235174447,-187500.02235174447,-187500.02235174447,2000
19578.697631203846,15216.799404239584,-142351.15258111389,-187500.02235174447,-167127.27899876583,-187500.02235174447,-187500.02235174447,-187500.02235174447,2000
19547.740465133247,15219.481613574222,-142361.1438108854,-187500.02235174447,-167141.36059777267,-187500.02235174447,-187500.02235174447,-187500.02235174447,2000
19522.818270065578,15211.502040803676,-142443.7782101367,-187500.02235174447,-167228.97943603748,-187500.02235174447,-187500.02235174447,-187500.02235174447,2000
19554.82596812558,15222.834375242517,-142402.91922127237,-187500.02235174447,-167186.33230761677,-187500.02235174447,-187500.02235174447,-187500.02235174447,2000
19579.792866682157,15236.088959704515,-142387.04948270912,-187500.02235174447,-167173.52475804387,-187500.02235174447,-187500.02235174447,-187500.02235174447,2000
19560.68212517287,15232.512680591666,-142460.2290940558,-187500.02235174447,-167244.08921528928,-187500.02235174447,-187500.02235174447,-187500.02235174447,2000
19527.44508116783,15207.545782035088,-142448.36031775002,-187500.02235174447,-167233.1145087617,-187500.02235174447,-187500.02235174447,-187500.02235174447,2000
19556.748218148736,15211.166764636848,-142499.36699859705,-187500.02235174447,-167290.22321584504,-187500.02235174447,-187500.02235174447,-187500.02235174447,2000
19587.235997585776,15227.684703789319,-142508.71002777937,-187500.02235174447,-167299.1415618827,-187500.02235174447,-187500.02235174447,-187500.02235174447,2000
19560.860939128514,15225.114253176958,-142495.4330915729,-187500.02235174447,-167291.02787864543,-187500.02235174447,-187500.02235174447,-187500.02235174447,2000
19533.100072515022,15221.4932705752,-142585.37651126107,-187500.02235174447,-167384.97226059108,-187500.02235174447,-187500.02235174447,-187500.02235174447,2000
19542.10782553051,15221.560325808565,-142591.88086889754,-187500.02235174447,-167387.0062693365,-187500.02235174447,-187500.02235174447,-187500.02235174447,2000
19577.289471303164,15230.501023590688,-142571.76429888778,-187500.02235174447,-167371.3600482178,-187500.02235174447,-187500.02235174447,-187500.02235174447,2000
19575.054296857634,15233.362046880968,-142607.6164969941,-187500.02235174447,-167414.54361850544,-187500.02235174447,-187500.02235174447,-187500.02235174447,2000
19540.453796440815,15227.77411076714,-142641.7252590329,-187500.02235174447,-167448.85354624435,-187500.02235174447,-187500.02235174447,-187500.02235174447,2000
19542.420749952886,15218.721654262741,-142637.63488979757,-187500.02235174447,-167450.9322584787,-187500.02235174447,-187500.02235174447,-187500.02235174447,2000
19576.462456758316,15230.612782312965,-142625.31907860268,-187500.02235174447,-167438.72820600608,-187500.02235174447,-187500.02235174447,-187500.02235174447,2000
19585.000823140243,15240.760474295674,-142627.33073560367,-187500.02235174447,-167444.49495607556,-187500.02235174447,-187500.02235174447,-187500.02235174447,2000
19546.511119188206,15226.187136910814,-142724.11378909514,-187500.02235174447,-167541.9038584118,-187500.02235174447,-187500.02235174447,-187500.02235174447,2000
19542.420749952886,15222.119119419947,-142703.3713702406,-187500.02235174447,-167523.62013144733,-187500.02235174447,-187500.02235174447,-187500.02235174447,2000
19579.21172132632,15234.792558526107,-142727.77947518582,-187500.02235174447,-167550.95631491617,-187500.02235174447,-187500.02235174447,-187500.02235174447,2000
19585.58196849608,15233.183232925325,-142766.42564134905,-187500.02235174447,-167582.62873680936,-187500.02235174447,-187500.02235174447,-187500.02235174447,2000
19551.428502968374,15223.192003153803,-142767.31971112726,-187500.02235174447,-167584.1933589212,-187500.02235174447,-187500.02235174447,-187500.02235174447,2000
19537.30220047262,15222.946133964793,-142830.2622235134,-187500.02235174447,-167655.45072024476,-187500.02235174447,-187500.02235174447,-187500.02235174447,2000
19573.40026776794,15230.277506146134,-142851.58578772377,-187500.02235174447,-167676.2825460771,-187500.02235174447,-187500.02235174447,-187500.02235174447,2000
19591.72869822129,15237.608878327475,-142782.0942142122,-187500.02235174447,-167607.305062688,-187500.02235174447,-187500.02235174447,-187500.02235174447,2000
19568.125256076488,15230.143395679403,-142838.33120326177,-187500.02235174447,-167672.8850809199,-187500.02235174447,-187500.02235174447,-187500.02235174447,2000
19546.15349127692,15220.308628119068,-142927.1793874716,-187500.02235174447,-167764.84015760903,-187500.02235174447,-187500.02235174447,-187500.02235174447,2000
19573.44497125685,15225.181308410325,-142927.11233223823,-187500.02235174447,-167762.62733490794,-187500.02235174447,-187500.02235174447,-187500.02235174447,2000
19585.626671984992,15239.486424861721,-142866.56145650882,-187500.02235174447,-167704.06576443504,-187500.02235174447,-187500.02235174447,-187500.02235174447,2000
19565.755971164224,15224.801328754584,-142914.39418964318,-187500.02235174447,-167759.65455289537,-187500.02235174447,-187500.02235174447,-187500.02235174447,2000
19549.61801166749,15221.023883941638,-143004.98580992053,-187500.02235174447,-167851.45316737334,-187500.02235174447,-187500.02235174447,-187500.02235174447,2000
19552.859014613514,15222.499099075689,-143030.19857766613,-187500.02235174447,-167874.36370544002,-187500.02235174447,-187500.02235174447,-187500.02235174447,2000
19587.01248014122,15240.49225336221,-142962.58455068883,-187500.02235174447,-167807.33082381854,-187500.02235174447,-187500.02235174447,-187500.02235174447,2000
19577.803561425633,15234.479634103733,-142993.96639990408,-187500.02235174447,-167846.73694929326,-187500.02235174447,-187500.02235174447,-187500.02235174447,2000
19541.43727319685,15232.11034919147,-143089.94479059515,-187500.02235174447,-167944.90581094098,-187500.02235174447,-187500.02235174447,-187500.02235174447,2000
19550.02034306769,15226.030674699627,-143077.4278137002,-187500.02235174447,-167930.71245321186,-187500.02235174447,-187500.02235174447,-187500.02235174447,2000
19587.571273752605,15237.988857983215,-143043.94490050615,-187500.02235174447,-167902.01281333124,-187500.02235174447,-187500.02235174447,-187500.02235174447,2000
19579.278776559684,15239.754645795185,-143074.5667904099,-187500.02235174447,-167934.40049104698,-187500.02235174447,-187500.02235174447,-187500.02235174447,2000
19548.299258744628,15231.886831746917,-143141.06323016444,-187500.02235174447,-167993.31968943117,-187500.02235174447,-187500.02235174447,-187500.02235174447,2000
19551.383799479463,15230.92570673534,-143142.3819830873,-187500.02235174447,-167991.37508766356,-187500.02235174447,-187500.02235174447,-187500.02235174447,2000
19581.49159926076,15240.939288251317,-143087.530802194,-187500.02235174447,-167945.41990106343,-187500.02235174447,-187500.02235174447,-187500.02235174447,2000
19584.687898717868,15243.912070263872,-143137.2857853515,-187500.02235174447,-168001.23220696836,-187500.02235174447,-187500.02235174447,-187500.02235174447,2000
19547.740465133247,15213.334883849013,-143206.7103036297,-187500.02235174447,-168067.8180537007,-187500.02235174447,-187500.02235174447,-187500.02235174447,2000
19539.023284795676,15219.839241485506,-143216.07568455645,-187500.02235174447,-168073.60715551462,-187500.02235174447,-187500.02235174447,-187500.02235174447,2000
19574.607261968526,15242.660372574375,-143184.80559406348,-187500.02235174447,-168045.7121784344,-187500.02235174447,-187500.02235174447,-187500.02235174447,2000
19592.68982323287,15245.141416208913,-143251.57025475148,-187500.02235174447,-168113.90735076755,-187500.02235174447,-187500.02235174447,-187500.02235174447,2000
19562.33615426256,15238.078264961037,-143275.2184003852,-187500.02235174447,-168137.91312431256,-187500.02235174447,-187500.02235174447,-187500.02235174447,2000
19544.90179358742,15229.048160201093,-143344.82173261902,-187500.02235174447,-168211.11508740368,-187500.02235174447,-187500.02235174447,-187500.02235174447,2000
19571.612128211516,15235.820738771052,-143331.56714815702,-187500.02235174447,-168197.05584014129,-187500.02235174447,-187500.02235174447,-187500.02235174447,2000
19596.91430293492,15240.335791151023,-143300.34176115296,-187500.02235174447,-168170.56902296175,-187500.02235174447,-187500.02235174447,-187500.02235174447,2000
19564.370163007996,15226.187136910814,-143387.26769533966,-187500.02235174447,-168264.9157363076,-187500.02235174447,-187500.02235174447,-187500.02235174447,2000
19543.91831683139,15229.20462241228,-143379.10930861346,-187500.02235174447,-168258.6125443712,-187500.02235174447,-187500.02235174447,-187500.02235174447,2000
19564.325459519085,15239.44172137281,-143385.03252089414,-187500.02235174447,-168268.69318112056,-187500.02235174447,-187500.02235174447,-187500.02235174447,2000
19576.64127071396,15243.465035374766,-143419.4989108442,-187500.02235174447,-168302.39961175915,-187500.02235174447,-187500.02235174447,-187500.02235174447,2000
19561.39738099544,15246.25900343168,-143419.4989108442,-187500.02235174447,-168302.93605362606,-187500.02235174447,-187500.02235174447,-187500.02235174447,2000
19536.788110350146,15236.088959704515,-143473.29955974812,-187500.02235174447,-168361.743493288,-187500.02235174447,-187500.02235174447,-187500.02235174447,2000
19552.948421591333,15231.752721280185,-143465.1188212775,-187500.02235174447,-168350.25469663797,-187500.02235174447,-187500.02235174447,-187500.02235174447,2000
19589.515875520217,15243.174462696847,-143422.62815506794,-187500.02235174447,-168309.93214964058,-187500.02235174447,-187500.02235174447,-187500.02235174447,2000
19579.30112830414,15247.555404610088,-143502.17801358437,-187500.02235174447,-168393.86295007027,-187500.02235174447,-187500.02235174447,-187500.02235174447,2000
19540.63261039646,15238.190023683313,-143512.14689161145,-187500.02235174447,-168402.8930548302,-187500.02235174447,-187500.02235174447,-187500.02235174447,2000
19548.746293633736,15236.49129110471,-143499.36169378302,-187500.02235174447,-168394.66761287066,-187500.02235174447,-187500.02235174447,-187500.02235174447,2000
19585.425506284893,15256.719619836764,-143542.16528441492,-187500.02235174447,-168442.54504949393,-187500.02235174447,-187500.02235174447,-187500.02235174447,2000
19582.832703928078,15245.811968542574,-143571.42371790693,-187500.02235174447,-168465.79086372745,-187500.02235174447,-187500.02235174447,-187500.02235174447,2000
19546.645229654936,15221.403863597377,-143574.17298247493,-187500.02235174447,-168472.89871846425,-187500.02235174447,-187500.02235174447,-187500.02235174447,2000
19543.49363368674,15226.701227033285,-143603.2973055002,-187500.02235174447,-168509.89085553776,-187500.02235174447,-187500.02235174447,-187500.02235174447,2000
19580.10579110453,15237.005381227182,-143616.37307600654,-187500.02235174447,-168517.89278005276,-187500.02235174447,-187500.02235174447,-187500.02235174447,2000
19584.509084762227,15236.960677738272,-143628.3089075457,-187500.02235174447,-168533.51664942704,-187500.02235174447,-187500.02235174447,-187500.02235174447,2000
19552.30022100213,15239.553480095086,-143677.169820925,-187500.02235174447,-168593.8440077119,-187500.02235174447,-187500.02235174447,-187500.02235174447,2000
19540.20792725181,15228.86934624545,-143735.99961233136,-187500.02235174447,-168653.32199970746,-187500.02235174447,-187500.02235174447,-187500.02235174447,2000
19573.176750323386,15237.161843438369,-143753.05399335074,-187500.02235174447,-168667.02361905857,-187500.02235174447,-187500.02235174447,-187500.02235174447,2000
19590.141724364963,15245.677858075842,-143708.55167014024,-187500.02235174447,-168627.7516040506,-187500.02235174447,-187500.02235174447,-187500.02235174447,2000
19561.330325762072,15241.11810220696,-143743.3309845127,-187500.02235174447,-168670.19756677124,-187500.02235174447,-187500.02235174447,-187500.02235174447,2000
19554.49069195875,15228.623477056442,-143781.41835706454,-187500.02235174447,-168707.1673521003,-187500.02235174447,-187500.02235174447,-187500.02235174447,2000
19580.26225331572,15229.763416023663,-143753.61278696213,-187500.02235174447,-168680.43466573177,-187500.02235174447,-187500.02235174447,-187500.02235174447,2000
19574.607261968526,15244.761436553174,-143811.61556382367,-187500.02235174447,-168743.60069556246,-187500.02235174447,-187500.02235174447,-187500.02235174447,2000
19564.996011852745,15239.173500439347,-143867.42786972856,-187500.02235174447,-168796.66373689935,-187500.02235174447,-187500.02235174447,-187500.02235174447,2000
19539.693837129336,15230.769244524152,-143858.64363415763,-187500.02235174447,-168785.6890303718,-187500.02235174447,-187500.02235174447,-187500.02235174447,2000
19557.23995652675,15243.06270397457,-143789.71085425746,-187500.02235174447,-168722.38889007436,-187500.02235174447,-187500.02235174447,-187500.02235174447,2000
19589.73939296477,15233.764378281163,-143866.08676506125,-187500.02235174447,-168807.90666436037,-187500.02235174447,-187500.02235174447,-187500.02235174447,2000
19586.0737068741,15258.664221604375,-143945.79308578887,-187500.02235174447,-168886.29423216515,-187500.02235174447,-187500.02235174447,-187500.02235174447,2000
19545.95232557682,15251.735180823229,-143940.85335026425,-187500.02235174447,-168878.51582509468,-187500.02235174447,-187500.02235174447,-187500.02235174447,2000
19560.97269785079,15245.54374760911,-143922.63667853316,-187500.02235174447,-168867.18349065585,-187500.02235174447,-187500.02235174447,-187500.02235174447,2000
19593.49448603326,15249.522358122154,-143976.54908615936,-187500.02235174447,-168922.99579656075,-187500.02235174447,-187500.02235174447,-187500.02235174447,2000
19583.503256261738,15241.989820240715,-143963.04863250838,-187500.02235174447,-168905.44967716333,-187500.02235174447,-187500.02235174447,-187500.02235174447,2000
19546.77934012167,15235.641924815409,-144022.32545880383,-187500.02235174447,-168967.72163721581,-187500.02235174447,-187500.02235174447,-187500.02235174447,2000
19553.261346013707,15237.4971196052,-144065.19610466913,-187500.02235174447,-169009.29588190268,-187500.02235174447,-187500.02235174447,-187500.02235174447,2000
19588.01830864171,15243.219166185758,-144012.6471534547,-187500.02235174447,-168957.9762766333,-187500.02235174447,-187500.02235174447,-187500.02235174447,2000
19588.152419108443,15252.629250601442,-144023.53245300442,-187500.02235174447,-168974.02482915221,-187500.02235174447,-187500.02235174447,-187500.02235174447,2000
19557.77639839368,15235.686628304318,-144069.26412215998,-187500.02235174447,-169016.20257093938,-187500.02235174447,-187500.02235174447,-187500.02235174447,2000
19554.513043703206,15231.149224179891,-144085.87146829028,-187500.02235174447,-169035.2462572153,-187500.02235174447,-187500.02235174447,-187500.02235174447,2000
19592.68982323287,15242.392151640912,-144115.84515760484,-187500.02235174447,-169068.907984365,-187500.02235174447,-187500.02235174447,-187500.02235174447,2000
19613.812221743134,15246.30370692059,-144149.64099522127,-187500.02235174447,-169098.88167367957,-187500.02235174447,-187500.02235174447,-187500.02235174447,2000
19576.77538118069,15233.674971303342,-144165.0860506399,-187500.02235174447,-169118.08182216669,-187500.02235174447,-187500.02235174447,-187500.02235174447,2000
19536.184613249854,15223.661389787363,-144205.81092903746,-187500.02235174447,-169162.427683166,-187500.02235174447,-187500.02235174447,-187500.02235174447,2000
19575.635442213472,15229.15991892337,-144211.532975618,-187500.02235174447,-169161.1312819876,-187500.02235174447,-187500.02235174447,-187500.02235174447,2000
19591.147552865452,15238.771169039152,-144186.56607706143,-187500.02235174447,-169137.63959856506,-187500.02235174447,-187500.02235174447,-187500.02235174447,2000
19565.331288019574,15232.87030850295,-144227.31330720347,-187500.02235174447,-169187.7298578894,-187500.02235174447,-187500.02235174447,-187500.02235174447,2000
19550.82500586808,15227.662352044863,-144291.61927600138,-187500.02235174447,-169253.13106216563,-187500.02235174447,-187500.02235174447,-187500.02235174447,2000
19571.701535189335,15220.666256030352,-144246.4464004572,-187500.02235174447,-169208.87460814413,-187500.02235174447,-187500.02235174447,-187500.02235174447,2000
19597.093116890566,15235.507814348677,-144257.68932791823,-187500.02235174447,-169226.0854513747,-187500.02235174447,-187500.02235174447,-187500.02235174447,2000
19580.39636378245,15236.960677738272,-144340.63665159186,-187500.02235174447,-169308.8092576038,-187500.02235174447,-187500.02235174447,-187500.02235174447,2000
19550.266212256698,15227.125910177936,-144384.1331463019,-187500.02235174447,-169350.80818543534,-187500.02235174447,-187500.02235174447,-187500.02235174447,2000
19574.31668929061,15221.605029297476,-144340.72605856968,-187500.02235174447,-169312.54199892783,-187500.02235174447,-187500.02235174447,-187500.02235174447,2000
19599.752974480747,15239.754645795185,-144354.3606226874,-187500.02235174447,-169334.89374338315,-187500.02235174447,-187500.02235174447,-187500.02235174447,2000
19583.21268358382,15239.173500439347,-144393.29736152856,-187500.02235174447,-169372.93641244608,-187500.02235174447,-187500.02235174447,-187500.02235174447,2000
19554.557747192117,15227.930572978328,-144423.40516130987,-187500.02235174447,-169402.26190117144,-187500.02235174447,-187500.02235174447,-187500.02235174447,2000
19565.800674653136,15224.10842467647,-144410.26233557015,-187500.02235174447,-169396.60690982424,-187500.02235174447,-187500.02235174447,-187500.02235174447,2000
19601.943445437366,15240.11227370647,-144434.22340562622,-187500.02235174447,-169427.22879972804,-187500.02235174447,-187500.02235174447,-187500.02235174447,2000
19597.07076514611,15240.045218473104,-144489.7004353643,-187500.02235174447,-169480.13537885374,-187500.02235174447,-187500.02235174447,-187500.02235174447,2000
19564.21370079681,15234.569041081553,-144506.9112785949,-187500.02235174447,-169494.68636449415,-187500.02235174447,-187500.02235174447,-187500.02235174447,2000
19564.05723858562,15233.518509092155,-144513.8626711205,-187500.02235174447,-169505.0128704325,-187500.02235174447,-187500.02235174447,-187500.02235174447,2000
19598.523628535706,15247.600108098997,-144515.5167002102,-187500.02235174447,-169505.61636753278,-187500.02235174447,-187500.02235174447,-187500.02235174447,2000
19602.725756493302,15224.644866543398,-144507.112444295,-187500.02235174447,-169498.9108441962,-187500.02235174447,-187500.02235174447,-187500.02235174447,2000
19579.278776559684,15214.452471071778,-144565.5175525567,-187500.02235174447,-169560.020513537,-187500.02235174447,-187500.02235174447,-187500.02235174447,2000
19564.548976963637,15220.15216590788,-144582.41547136492,-187500.02235174447,-169574.66090615522,-187500.02235174447,-187500.02235174447,-187500.02235174447,2000
19589.8735034315,15225.96361946626,-144580.3814626195,-187500.02235174447,-169577.85720561235,-187500.02235174447,-187500.02235174447,-187500.02235174447,2000
19593.516837777715,15236.290125404612,-144601.14623321846,-187500.02235174447,-169600.49952274555,-187500.02235174447,-187500.02235174447,-187500.02235174447,2000
19568.72875317678,15225.851860743984,-144611.07040775663,-187500.02235174447,-169618.26915958754,-187500.02235174447,-187500.02235174447,-187500.02235174447,2000
19550.221508767787,15219.72748276323,-144700.4550338334,-187500.02235174447,-169711.11830605488,-187500.02235174447,-187500.02235174447,-187500.02235174447,2000
19578.83174167058,15226.812985755561,-144716.1683101855,-187500.02235174447,-169723.5011724831,-187500.02235174447,-187500.02235174447,-187500.02235174447,2000
19601.317596592617,15249.500006377699,-144677.18686785543,-187500.02235174447,-169691.44877093422,-187500.02235174447,-187500.02235174447,-187500.02235174447,2000
19577.44593351435,15229.226974156736,-144721.7562462993,-187500.02235174447,-169746.09878612743,-187500.02235174447,-187500.02235174447,-187500.02235174447,2000
19550.266212256698,15204.930627933816,-144755.70854612693,-187500.02235174447,-169778.50881558764,-187500.02235174447,-187500.02235174447,-187500.02235174447,2000
19576.328346291586,15219.481613574222,-144752.37813620307,-187500.02235174447,-169772.25032714015,-187500.02235174447,-187500.02235174447,-187500.02235174447,2000
19603.820991971614,15230.858651501972,-144718.29172590873,-187500.02235174447,-169744.19888784873,-187500.02235174447,-187500.02235174447,-187500.02235174447,2000
19583.570311495103,15244.58262259753,-144783.33530227368,-187500.02235174447,-169815.6350631279,-187500.02235174447,-187500.02235174447,-187500.02235174447,2000
19552.702552402327,15226.969447966749,-144817.19819512346,-187500.02235174447,-169849.56501121106,-187500.02235174447,-187500.02235174447,-187500.02235174447,2000
19567.74527642075,15215.972389694738,-144796.41107278003,-187500.02235174447,-169829.56019992355,-187500.02235174447,-187500.02235174447,-187500.02235174447,2000
19599.864733203023,15231.797424769096,-144848.02125072732,-187500.02235174447,-169880.097494137,-187500.02235174447,-187500.02235174447,-187500.02235174447,2000
19591.54988426565,15236.983029482726,-144843.26032915837,-187500.02235174447,-169875.53773826812,-187500.02235174447,-187500.02235174447,-187500.02235174447,2000
19558.514005960704,15223.527279320631,-144863.2427887014,-187500.02235174447,-169904.52795082665,-187500.02235174447,-187500.02235174447,-187500.02235174447,2000
19565.577157208583,15222.342636864501,-144897.88799260714,-187500.02235174447,-169938.0555675096,-187500.02235174447,-187500.02235174447,-187500.02235174447,2000
19608.581913540595,15232.624439313942,-144861.96873926744,-187500.02235174447,-169900.12465716896,-187500.02235174447,-187500.02235174447,-187500.02235174447,2000
19590.141724364963,15215.994741439194,-144900.86077461968,-187500.02235174447,-169946.7727478472,-187500.02235174447,-187500.02235174447,-187500.02235174447,2000
19561.889119373456,15223.169651409347,-144960.67404278208,-187500.02235174447,-170011.2351788563,-187500.02235174447,-187500.02235174447,-187500.02235174447,2000
19554.602450681024,15239.73229405073,-144925.38063828714,-187500.02235174447,-169978.80279765165,-187500.02235174447,-187500.02235174447,-187500.02235174447,2000
19587.280701074684,15235.887794004417,-144906.56046945578,-187500.02235174447,-169967.98455333526,-187500.02235174447,-187500.02235174447,-187500.02235174447,2000
19581.11161960502,15212.396110581889,-144989.88777278518,-187500.02235174447,-170056.385702656,-187500.02235174447,-187500.02235174447,-187500.02235174447,2000
19554.423636725383,15209.378625080422,-145033.8313023843,-187500.02235174447,-170100.77626714425,-187500.02235174447,-187500.02235174447,-187500.02235174447,2000
19553.842491369545,15223.035540942616,-145053.07615436031,-187500.02235174447,-170116.46719175187,-187500.02235174447,-187500.02235174447,-187500.02235174447,2000
19586.40898304093,15226.164785166358,-145039.5309972204,-187500.02235174447,-170103.12320031205,-187500.02235174447,-187500.02235174447,-187500.02235174447,2000
19593.718003477814,15224.957790965771,-145078.6018465283,-187500.02235174447,-170145.18918337693,-187500.02235174447,-187500.02235174447,-187500.02235174447,2000
19571.9697561228,15223.192003153803,-145056.98770964,-187500.02235174447,-170127.1960290904,-187500.02235174447,-187500.02235174447,-187500.02235174447,2000
19558.73752340526,15220.487442074711,-145103.36757938477,-187500.02235174447,-170180.50493961634,-187500.02235174447,-187500.02235174447,-187500.02235174447,2000
19580.150494593443,15231.640962557909,-145086.22379138754,-187500.02235174447,-170161.84123299614,-187500.02235174447,-187500.02235174447,-187500.02235174447,2000
19603.35160533805,15248.58358485503,-145085.48618382053,-187500.02235174447,-170166.55745107622,-187500.02235174447,-187500.02235174447,-187500.02235174447,2000
19579.032907370678,15225.360122365968,-145174.1555540747,-187500.02235174447,-170257.7302167094,-187500.02235174447,-187500.02235174447,-187500.02235174447,2000
19550.757950634714,15217.380549595422,-145215.9756679506,-187500.02235174447,-170298.27628115134,-187500.02235174447,-187500.02235174447,-187500.02235174447,2000
19580.418715526906,15229.4951950902,-145194.29447582897,-187500.02235174447,-170276.90801345208,-187500.02235174447,-187500.02235174447,-187500.02235174447,2000
19601.988148926277,15230.076340446038,-145190.58408624938,-187500.02235174447,-170284.61936528914,-187500.02235174447,-187500.02235174447,-187500.02235174447,2000
19577.96002363682,15229.226974156736,-145251.85021780137,-187500.02235174447,-170352.09928179972,-187500.02235174447,-187500.02235174447,-187500.02235174447,2000
19561.263270528707,15220.018055441149,-145273.2408372451,-187500.02235174447,-170373.46754949898,-187500.02235174447,-187500.02235174447,-187500.02235174447,2000
19583.63736672847,15221.180346152825,-145248.05042124397,-187500.02235174447,-170353.52979344485,-187500.02235174447,-187500.02235174447,-187500.02235174447,2000
19581.53630274967,15227.975276467238,-145255.69471784768,-187500.02235174447,-170361.35290400422,-187500.02235174447,-187500.02235174447,-187500.02235174447,2000
19585.425506284893,15234.859613759472,-145251.783162568,-187500.02235174447,-170357.75427314691,-187500.02235174447,-187500.02235174447,-187500.02235174447,2000
19557.888157115958,15230.948058479795,-145293.91620086625,-187500.02235174447,-170409.9232447056,-187500.02235174447,-187500.02235174447,-187500.02235174447,2000
19566.24770954224,15222.409692097866,-145298.9453433687,-187500.02235174447,-170417.61224479822,-187500.02235174447,-187500.02235174447,-187500.02235174447,2000
19601.719927992814,15237.027732971637,-145307.46135800617,-187500.02235174447,-170431.47032636052,-187500.02235174447,-187500.02235174447,-187500.02235174447,2000
19588.86767493101,15231.663314302365,-145354.60118706242,-187500.02235174447,-170484.1310362972,-187500.02235174447,-187500.02235174447,-187500.02235174447,2000
19556.971735593288,15218.364026351455,-145365.57589358996,-187500.02235174447,-170500.93954812762,-187500.02235174447,-187500.02235174447,-187500.02235174447,2000
19557.843453627047,15214.988912938705,-145420.11415006092,-187500.02235174447,-170560.73046454554,-187500.02235174447,-187500.02235174447,-187500.02235174447,2000
19588.532398764182,15223.236706642712,-145400.19874575123,-187500.02235174447,-170539.07162416837,-187500.02235174447,-187500.02235174447,-187500.02235174447,2000
19597.31663433512,15233.339695136512,-145373.48841112715,-187500.02235174447,-170521.61491174877,-187500.02235174447,-187500.02235174447,-187500.02235174447,2000
19567.67822118738,15236.15601493788,-145462.828333715,-187500.02235174447,-170620.83430538588,-187500.02235174447,-187500.02235174447,-187500.02235174447,2000
19554.848319870034,15227.64000030041,-145505.07313073555,-187500.02235174447,-170665.87307046333,-187500.02235174447,-187500.02235174447,-187500.02235174447,2000
19584.889064417966,15233.473805603244,-145455.25109234467,-187500.02235174447,-170618.8226483849,-187500.02235174447,-187500.02235174447,-187500.02235174447,2000
19604.200971627353,15221.828546742028,-145479.1451071674,-187500.02235174447,-170649.46689003313,-187500.02235174447,-187500.02235174447,-187500.02235174447,2000
19574.204930568332,15209.378625080422,-145533.01281130468,-187500.02235174447,-170704.4968848821,-187500.02235174447,-187500.02235174447,-187500.02235174447,2000
19558.357543749516,15207.67989250182,-145565.48989599824,-187500.02235174447,-170733.30828348498,-187500.02235174447,-187500.02235174447,-187500.02235174447,2000
19584.419677784404,15219.548668807587,-145540.79121837512,-187500.02235174447,-170709.1907512177,-187500.02235174447,-187500.02235174447,-187500.02235174447,2000
19604.98328268329,15228.668180545352,-145542.7581718872,-187500.02235174447,-170723.20529499117,-187500.02235174447,-187500.02235174447,-187500.02235174447,2000
19579.748163193246,15222.454395586778,-145601.364445849,-187500.02235174447,-170788.69590624524,-187500.02235174447,-187500.02235174447,-187500.02235174447,2000
19576.842436414056,15217.648770528886,-145609.65694304192,-187500.02235174447,-170801.59286279595,-187500.02235174447,-187500.02235174447,-187500.02235174447,2000
19599.440050058372,15215.81592748355,-145616.34011463405,-187500.02235174447,-170814.4227641133,-187500.02235174447,-187500.02235174447,-187500.02235174447,2000
19596.713137234823,15222.610857797965,-145591.68614049986,-187500.02235174447,-170795.15556039283,-187500.02235174447,-187500.02235174447,-187500.02235174447,2000
19583.994994639754,15230.456320101777,-145648.30310920515,-187500.02235174447,-170856.17582275582,-187500.02235174447,-187500.02235174447,-187500.02235174447,2000
19558.134026304964,15228.712884034263,-145668.01734781472,-187500.02235174447,-170873.8784043644,-187500.02235174447,-187500.02235174447,-187500.02235174447,2000
19566.20300605333,15214.340712349502,-145634.15445496494,-187500.02235174447,-170843.45768016073,-187500.02235174447,-187500.02235174447,-187500.02235174447,2000
19603.35160533805,15222.499099075689,-145670.65485366047,-187500.02235174447,-170888.89877663838,-187500.02235174447,-187500.02235174447,-187500.02235174447,2000
19590.007613898233,15225.58363981052,-145736.81601724817,-187500.02235174447,-170959.21736469478,-187500.02235174447,-187500.02235174447,-187500.02235174447,2000
19556.904680359923,15212.239648370702,-145719.00167691728,-187500.02235174447,-170944.95695173228,-187500.02235174447,-187500.02235174447,-187500.02235174447,2000
19565.599508953037,15214.944209449794,-145708.02697038974,-187500.02235174447,-170942.76648077567,-187500.02235174447,-187500.02235174447,-187500.02235174447,2000
19593.874465689,15210.786784981106,-145734.17851140245,-187500.02235174447,-170970.5496991336,-187500.02235174447,-187500.02235174447,-187500.02235174447,2000
19601.965797181823,15221.15799440837,-145699.17567958543,-187500.02235174447,-170932.61878879296,-187500.02235174447,-187500.02235174447,-187500.02235174447,2000
19563.63255544097,15217.894639717895,-145730.46812182287,-187500.02235174447,-170971.5555276341,-187500.02235174447,-187500.02235174447,-187500.02235174447,2000
19558.469302471793,15214.921857705338,-145804.0053610808,-187500.02235174447,-171046.6350372595,-187500.02235174447,-187500.02235174447,-187500.02235174447,2000
19591.505180776738,15223.527279320631,-145794.48351794286,-187500.02235174447,-171038.1637261109,-187500.02235174447,-187500.02235174447,-187500.02235174447,2000
19597.92013143541,15230.121043934947,-145816.54468972023,-187500.02235174447,-171065.52226132422,-187500.02235174447,-187500.02235174447,-187500.02235174447,2000
19566.62768919798,15229.785767768119,-145829.08401835966,-187500.02235174447,-171076.78754052968,-187500.02235174447,-187500.02235174447,-187500.02235174447,2000
19552.434331468863,15225.270715388146,-145861.80697224225,-187500.02235174447,-171117.87004683854,-187500.02235174447,-187500.02235174447,-187500.02235174447,2000
19581.11161960502,15209.15510763587,-145886.1256702096,-187500.02235174447,-171145.27328554075,-187500.02235174447,-187500.02235174447,-187500.02235174447,2000
19601.20583787034,15227.416482855855,-145818.8245676547,-187500.02235174447,-171081.16848244294,-187500.02235174447,-187500.02235174447,-187500.02235174447,2000
19572.237977056262,15214.184250138314,-145899.2908476938,-187500.02235174447,-171168.56380326318,-187500.02235174447,-187500.02235174447,-187500.02235174447,2000
19548.18750002235,15203.29895058858,-145972.89514218512,-187500.02235174447,-171245.40910070052,-187500.02235174447,-187500.02235174447,-187500.02235174447,2000
19573.48967474576,15220.77801475263,-145966.72606071545,-187500.02235174447,-171238.68122561948,-187500.02235174447,-187500.02235174447,-187500.02235174447,2000
19622.708216036346,15224.711921776763,-145926.87290035165,-187500.02235174447,-171202.60551006862,-187500.02235174447,-187500.02235174447,-187500.02235174447,2000
19574.763724179713,15220.06275893006,-145970.68231948404,-187500.02235174447,-171250.79587111424,-187500.02235174447,-187500.02235174447,-187500.02235174447,2000
19541.39256970794,15221.4932705752,-146001.93005823257,-187500.02235174447,-171280.23311856188,-187500.02235174447,-187500.02235174447,-187500.02235174447,2000
19555.608279181513,15220.4427385858,-145975.33148233074,-187500.02235174447,-171261.16708054152,-187500.02235174447,-187500.02235174447,-187500.02235174447,2000
19594.410907555928,15228.735235778719,-146018.04566598483,-187500.02235174447,-171311.61496777713,-187500.02235174447,-187500.02235174447,-187500.02235174447,2000
19581.983337638776,15226.857689244473,-146044.08544827526,-187500.02235174447,-171336.02307272234,-187500.02235174447,-187500.02235174447,-187500.02235174447,2000
19551.786130879656,15221.180346152825,-146056.53536993687,-187500.02235174447,-171352.2951426858,-187500.02235174447,-187500.02235174447,-187500.02235174447,2000
19555.697686159336,15214.743043749697,-146092.7898994434,-187500.02235174447,-171402.45245724352,-187500.02235174447,-187500.02235174447,-187500.02235174447,2000
19588.10771561953,15213.91602920485,-146083.49157374998,-187500.02235174447,-171395.59047169573,-187500.02235174447,-187500.02235174447,-187500.02235174447,2000
19591.259311587728,15224.980142710227,-146077.5683614693,-187500.02235174447,-171392.43887572753,-187500.02235174447,-187500.02235174447,-187500.02235174447,2000
19556.43529372636,15226.053026444082,-146133.2912603964,-187500.02235174447,-171450.6204665447,-187500.02235174447,-187500.02235174447,-187500.02235174447,2000
19549.841529112047,15212.686683259808,-146102.982294915,-187500.02235174447,-171422.8595999312,-187500.02235174447,-187500.02235174447,-187500.02235174447,2000
19586.431334785382,15217.53701180661,-146087.5819429853,-187500.02235174447,-171415.30471030532,-187500.02235174447,-187500.02235174447,-187500.02235174447,2000
19591.840456943566,15231.73036953573,-146153.27371993946,-187500.02235174447,-171482.04701924886,-187500.02235174447,-187500.02235174447,-187500.02235174447,2000
19555.742389648247,15228.757587523174,-146205.88972638725,-187500.02235174447,-171535.4453367526,-187500.02235174447,-187500.02235174447,-187500.02235174447,2000
19548.723941889282,15219.503965318676,-146180.02875805245,-187500.02235174447,-171517.80981037734,-187500.02235174447,-187500.02235174447,-187500.02235174447,2000
19580.88810216047,15219.168689151848,-146209.3989502667,-187500.02235174447,-171551.78446194943,-187500.02235174447,-187500.02235174447,-187500.02235174447,2000
19589.672337731405,15230.456320101777,-146208.7060461886,-187500.02235174447,-171547.42587178064,-187500.02235174447,-187500.02235174447,-187500.02235174447,2000
19563.16316880741,15224.019017698649,-146191.4057959802,-187500.02235174447,-171537.76991817594,-187500.02235174447,-187500.02235174447,-187500.02235174447,2000
19547.807520366612,15206.3387878345,-146248.4697995746,-187500.02235174447,-171602.6570323297,-187500.02235174447,-187500.02235174447,-187500.02235174447,2000
19584.374974295497,15223.214354898259,-146236.6680785022,-187500.02235174447,-171587.2566804,-187500.02235174447,-187500.02235174447,-187500.02235174447,2000
19607.35256759555,15236.111311448969,-146182.21922900906,-187500.02235174447,-171540.51918274394,-187500.02235174447,-187500.02235174447,-187500.02235174447,2000
19567.9687938653,15220.263924630157,-146265.07714570488,-187500.02235174447,-171632.63072164427,-187500.02235174447,-187500.02235174447,-187500.02235174447,2000
19547.807520366612,15216.978218195227,-146336.3345070284,-187500.02235174447,-171703.79867598996,-187500.02235174447,-187500.02235174447,-187500.02235174447,2000
19557.843453627047,15222.29793337559,-146318.96720158664,-187500.02235174447,-171686.0737426369,-187500.02235174447,-187500.02235174447,-187500.02235174447,2000
19589.471172031306,15226.365950866457,-146289.01586401652,-187500.02235174447,-171663.5655359704,-187500.02235174447,-187500.02235174447,-187500.02235174447,2000
19568.72875317678,15225.15895666587,-146322.14114929928,-187500.02235174447,-171700.35650734385,-187500.02235174447,-187500.02235174447,-187500.02235174447,2000
19541.705494130314,15219.325151363035,-146331.12655057033,-187500.02235174447,-171708.93957721468,-187500.02235174447,-187500.02235174447,-187500.02235174447,2000
19565.82302639759,15225.20366015478,-146352.56187350297,-187500.02235174447,-171739.82968805192,-187500.02235174447,-187500.02235174447,-187500.02235174447,2000
19592.309843577128,15239.531128350633,-146384.68133028524,-187500.02235174447,-171773.35730473488,-187500.02235174447,-187500.02235174447,-187500.02235174447,2000
19574.182578823875,15224.555459565576,-146362.66486199677,-187500.02235174447,-171749.66445561225,-187500.02235174447,-187500.02235174447,-187500.02235174447,2000
19553.417808224895,15234.30082014809,-146429.5189296626,-187500.02235174447,-171820.36302332437,-187500.02235174447,-187500.02235174447,-187500.02235174447,2000
19557.843453627047,15221.046235686093,-146471.02611911608,-187500.02235174447,-171862.9207447673,-187500.02235174447,-187500.02235174447,-187500.02235174447,2000
19581.6704132164,15210.607971025465,-146409.0000282526,-187500.02235174447,-171803.800380683,-187500.02235174447,-187500.02235174447,-187500.02235174447,2000
19583.458552772827,15234.323171892545,-146415.9067172893,-187500.02235174447,-171818.61958725686,-187500.02235174447,-187500.02235174447,-187500.02235174447,2000
19549.8638808565,15217.380549595422,-146464.52176147958,-187500.02235174447,-171868.50868088112,-187500.02235174447,-187500.02235174447,-187500.02235174447,2000
19563.7666659077,15216.061796672559,-146449.88136886136,-187500.02235174447,-171854.82941327448,-187500.02235174447,-187500.02235174447,-187500.02235174447,2000
19596.73548897928,15225.67304678834,-146442.75116238013,-187500.02235174447,-171855.47761386368,-187500.02235174447,-187500.02235174447,-187500.02235174447,2000
19596.73548897928,15221.560325808565,-146501.7374159977,-187500.02235174447,-171915.4696959817,-187500.02235174447,-187500.02235174447,-187500.02235174447,2000
19557.977564093777,15217.738177506708,-146504.75490149914,-187500.02235174447,-171918.04014659408,-187500.02235174447,-187500.02235174447,-187500.02235174447,2000
19548.858052356012,15213.089014660003,-146533.72276231323,-187500.02235174447,-171956.46279531275,-187500.02235174447,-187500.02235174447,-187500.02235174447,2000
19582.67624171689,15226.991799711204,-146557.50501841368,-187500.02235174447,-171982.61433632547,-187500.02235174447,-187500.02235174447,-187500.02235174447,2000
19602.748108237756,15243.308573163578,-146524.42443661983,-187500.02235174447,-171950.36076907645,-187500.02235174447,-187500.02235174447,-187500.02235174447,2000
19578.63057597048,15226.455357844277,-146598.02873111115,-187500.02235174447,-172033.7551276392,-187500.02235174447,-187500.02235174447,-187500.02235174447,2000
19547.718113388793,15227.952924722782,-146645.30267063412,-187500.02235174447,-172082.4148753184,-187500.02235174447,-187500.02235174447,-187500.02235174447,2000
19587.727735963792,15229.58460206802,-146600.75564393468,-187500.02235174447,-172038.33723525255,-187500.02235174447,-187500.02235174447,-187500.02235174447,2000
19597.29428259066,15227.751759022685,-146620.8051587111,-187500.02235174447,-172065.89693616593,-187500.02235174447,-187500.02235174447,-187500.02235174447,2000
19568.30407003213,15233.719674792252,-146646.48731309024,-187500.02235174447,-172095.06596268012,-187500.02235174447,-187500.02235174447,-187500.02235174447,2000
19553.216642524796,15233.764378281163,-146682.00423502974,-187500.02235174447,-172139.76945159072,-187500.02235174447,-187500.02235174447,-187500.02235174447,2000
19577.334174792075,15235.530166093133,-146720.00220060375,-187500.02235174447,-172178.70619043187,-187500.02235174447,-187500.02235174447,-187500.02235174447,2000
19601.65287275945,15232.49032884721,-146660.09952546353,-187500.02235174447,-172112.94735824436,-187500.02235174447,-187500.02235174447,-187500.02235174447,2000
19589.046488886655,15230.948058479795,-146659.54073185215,-187500.02235174447,-172118.870570525,-187500.02235174447,-187500.02235174447,-187500.02235174447,2000
19557.977564093777,15220.912125219362,-146695.05765379162,-187500.02235174447,-172157.42732971042,-187500.02235174447,-187500.02235174447,-187500.02235174447,2000
19577.40123002544,15228.198793911792,-146705.0712353076,-187500.02235174447,-172173.05119908467,-187500.02235174447,-187500.02235174447,-187500.02235174447,2000
19607.73254725129,15243.01800048566,-146731.06631410914,-187500.02235174447,-172201.12499012053,-187500.02235174447,-187500.02235174447,-187500.02235174447,2000
19596.131991878985,15239.911108006372,-146721.92445062692,-187500.02235174447,-172190.21733882636,-187500.02235174447,-187500.02235174447,-187500.02235174447,2000
19568.862863643513,15233.406750369877,-146717.7893779027,-187500.02235174447,-172197.7498767078,-187500.02235174447,-187500.02235174447,-187500.02235174447,2000
19574.67431720189,15233.071474203049,-146783.9952449793,-187500.02235174447,-172271.17535724348,-187500.02235174447,-187500.02235174447,-187500.02235174447,2000
19609.0289484297,15235.083131204026,-146784.3528728906,-187500.02235174447,-172267.33085719717,-187500.02235174447,-187500.02235174447,-187500.02235174447,2000
19607.866657718023,15244.090884219515,-146767.47730582682,-187500.02235174447,-172255.43972914695,-187500.02235174447,-187500.02235174447,-187500.02235174447,2000
19574.74137243526,15241.11810220696,-146812.89605056003,-187500.02235174447,-172313.04017460826,-187500.02235174447,-187500.02235174447,-187500.02235174447,2000
19565.621860697494,15222.543802564598,-146830.08454204616,-187500.02235174447,-172330.1839626055,-187500.02235174447,-187500.02235174447,-187500.02235174447,2000
19602.21166637083,15221.649732786385,-146775.16630591947,-187500.02235174447,-172278.4620259359,-187500.02235174447,-187500.02235174447,-187500.02235174447,2000
19606.860829217534,15226.611820055465,-146806.05641675668,-187500.02235174447,-172321.73500320138,-187500.02235174447,-187500.02235174447,-187500.02235174447,2000
19567.74527642075,15225.762453766163,-146923.64894433605,-187500.02235174447,-172441.85327790419,-187500.02235174447,-187500.02235174447,-187500.02235174447,2000
19554.96007859231,15217.87228797344,-146932.20966246244,-187500.02235174447,-172449.87755416366,-187500.02235174447,-187500.02235174447,-187500.02235174447,2000
19592.265140088217,15225.829508999528,-146866.3167198082,-187500.02235174447,-172387.6279458556,-187500.02235174447,-187500.02235174447,-187500.02235174447,2000
19620.763614268733,15228.265849145157,-146924.1406827141,-187500.02235174447,-172450.61516173068,-187500.02235174447,-187500.02235174447,-187500.02235174447,2000
19585.693727218357,15230.143395679403,-146990.32419804623,-187500.02235174447,-172517.44687765205,-187500.02235174447,-187500.02235174447,-187500.02235174447,2000
19546.555822677117,15218.900468218384,-146993.45344227,-187500.02235174447,-172520.28554919787,-187500.02235174447,-187500.02235174447,-187500.02235174447,2000
19582.631538227983,15234.054950959082,-146914.26121166482,-187500.02235174447,-172445.94364713953,-187500.02235174447,-187500.02235174447,-187500.02235174447,2000
19606.570256539617,15245.186119697824,-146950.09105802668,-187500.02235174447,-172489.19427266053,-187500.02235174447,-187500.02235174447,-187500.02235174447,2000
19582.36331729452,15241.743951051707,-146990.1900875795,-187500.02235174447,-172527.90749405714,-187500.02235174447,-187500.02235174447,-187500.02235174447,2000
19558.424598982885,15239.173500439347,-146980.95881711948,-187500.02235174447,-172524.04064226637,-187500.02235174447,-187500.02235174447,-187500.02235174447,2000
19572.148570078443,15235.329000393034,-147010.53017503384,-187500.02235174447,-172560.09400607276,-187500.02235174447,-187500.02235174447,-187500.02235174447,2000
19602.189314626376,15242.123930707448,-146990.3018463018,-187500.02235174447,-172538.9716075625,-187500.02235174447,-187500.02235174447,-187500.02235174447,2000
19595.662605245427,15248.20360519929,-147045.3541928952,-187500.02235174447,-172592.79460821088,-187500.02235174447,-187500.02235174447,-187500.02235174447,2000
19566.29241303115,15229.58460206802,-147071.57278914127,-187500.02235174447,-172622.9024079922,-187500.02235174447,-187500.02235174447,-187500.02235174447,2000
19572.8191224121,15238.72646555024,-147087.0178445599,-187500.02235174447,-172643.22014370206,-187500.02235174447,-187500.02235174447,-187500.02235174447,2000
19605.430317572394,15257.032544259137,-147070.8128298298,-187500.02235174447,-172630.63611157372,-187500.02235174447,-187500.02235174447,-187500.02235174447,2000
19603.172791382407,15263.939233295827,-147098.4172342321,-187500.02235174447,-172663.87315557877,-187500.02235174447,-187500.02235174447,-187500.02235174447,2000
19570.360430522018,15251.042276745115,-147120.50075775394,-187500.02235174447,-172685.0179058335,-187500.02235174447,-187500.02235174447,-187500.02235174447,2000
19577.691802703357,15254.842073302518,-147113.4152547616,-187500.02235174447,-172687.8118738904,-187500.02235174447,-187500.02235174447,-187500.02235174447,2000
19611.845268231067,15256.49610239221,-147142.11489464223,-187500.02235174447,-172721.18302836217,-187500.02235174447,-187500.02235174447,-187500.02235174447,2000
19608.045471673664,15244.672029575353,-147147.61342377824,-187500.02235174447,-172722.90411268524,-187500.02235174447,-187500.02235174447,-187500.02235174447,2000
19568.281718287675,15224.689570032308,-147135.25290909444,-187500.02235174447,-172712.91288291372,-187500.02235174447,-187500.02235174447,-187500.02235174447,2000
19570.472189244294,15236.938325993817,-147147.94869994506,-187500.02235174447,-172732.94004594567,-187500.02235174447,-187500.02235174447,-187500.02235174447,2000
19613.208724642842,15258.30659369309,-147134.69411548306,-187500.02235174447,-172719.37253706128,-187500.02235174447,-187500.02235174447,-187500.02235174447,2000
19623.334064881095,15271.672936877363,-147149.84859822376,-187500.02235174447,-172731.04014766696,-187500.02235174447,-187500.02235174447,-187500.02235174447,2000
19593.539189522173,15254.819721558062,-147189.7911655654,-187500.02235174447,-172777.12944473382,-187500.02235174447,-187500.02235174447,-187500.02235174447,2000
19565.39834325294,15224.577811310031,-147231.20894804108,-187500.02235174447,-172819.8883318768,-187500.02235174447,-187500.02235174447,-187500.02235174447,2000
19610.9288467084,15245.767265053662,-147190.2382004545,-187500.02235174447,-172780.39279942427,-187500.02235174447,-187500.02235174447,-187500.02235174447,2000
19632.475928363318,15261.16761698337,-147235.56753820987,-187500.02235174447,-172830.1477825818,-187500.02235174447,-187500.02235174447,-187500.02235174447,2000
19590.16407610942,15249.455302888788,-147275.35364334032,-187500.02235174447,-172866.75993999958,-187500.02235174447,-187500.02235174447,-187500.02235174447,2000
19565.800674653136,15246.706038320786,-147279.37695734226,-187500.02235174447,-172869.41979758977,-187500.02235174447,-187500.02235174447,-187500.02235174447,2000
19599.41769831392,15263.291032706624,-147249.17975058316,-187500.02235174447,-172845.12345136685,-187500.02235174447,-187500.02235174447,-187500.02235174447,2000
19622.88702999199,15266.107352507992,-147289.41289060272,-187500.02235174447,-172886.87651000937,-187500.02235174447,-187500.02235174447,-187500.02235174447,2000
19608.112526907033,15258.083076248537,-147267.6646432477,-187500.02235174447,-172864.68122776525,-187500.02235174447,-187500.02235174447,-187500.02235174447,2000
19581.424544027395,15261.078210005548,-147349.06969655392,-187500.02235174447,-172951.18247880728,-187500.02235174447,-187500.02235174447,-187500.02235174447,2000
19598.277759346696,15259.155959982392,-147368.26984504104,-187500.02235174447,-172969.9802958942,-187500.02235174447,-187500.02235174447,-187500.02235174447,2000
19629.41373937294,15272.701117122308,-147368.15808631876,-187500.02235174447,-172974.54005176306,-187500.02235174447,-187500.02235174447,-187500.02235174447,2000
19612.605227542546,15272.20937874429,-147412.83922348492,-187500.02235174447,-173025.099697721,-187500.02235174447,-187500.02235174447,-187500.02235174447,2000
19576.931843391878,15253.031582001637,-147424.17155792375,-187500.02235174447,-173037.5049158937,-187500.02235174447,-187500.02235174447,-187500.02235174447,2000
19592.063974388122,15255.132645980437,-147399.56228727844,-187500.02235174447,-173022.75276455318,-187500.02235174447,-187500.02235174447,-187500.02235174447,2000
19623.065843947632,15263.000460028705,-147435.90622376278,-187500.02235174447,-173062.33770398353,-187500.02235174447,-187500.02235174447,-187500.02235174447,2000
19616.36032061104,15264.49802690721,-147427.34550563642,-187500.02235174447,-173048.97136079925,-187500.02235174447,-187500.02235174447,-187500.02235174447,2000
19581.268081816208,15259.044201260114,-147412.45924382916,-187500.02235174447,-173036.4990873932,-187500.02235174447,-187500.02235174447,-187500.02235174447,2000
19578.518817248205,15251.936346523327,-147478.79922137252,-187500.02235174447,-173104.4036870484,-187500.02235174447,-187500.02235174447,-187500.02235174447,2000
19612.515820564728,15274.109277022992,-147523.05567539402,-187500.02235174447,-173143.1616119339,-187500.02235174447,-187500.02235174447,-187500.02235174447,2000
19613.186372898384,15273.081096778047,-147511.83509967747,-187500.02235174447,-173135.24909439674,-187500.02235174447,-187500.02235174447,-187500.02235174447,2000
19579.792866682157,15261.726410594752,-147520.23935559267,-187500.02235174447,-173157.64554234096,-187500.02235174447,-187500.02235174447,-187500.02235174447,2000
19570.02515435519,15253.948003524305,-147600.6385803984,-187500.02235174447,-173242.02337765973,-187500.02235174447,-187500.02235174447,-187500.02235174447,2000
19605.027986172197,15259.69240184932,-147570.7319463172,-187500.02235174447,-173210.26154878875,-187500.02235174447,-187500.02235174447,-187500.02235174447,2000
19614.16984965442,15268.610747886987,-147542.8816727259,-187500.02235174447,-173186.72516187732,-187500.02235174447,-187500.02235174447,-187500.02235174447,2000
19586.610148741027,15231.864480002461,-147635.44024651533,-187500.02235174447,-173284.11171246908,-187500.02235174447,-187500.02235174447,-187500.02235174447,2000
19566.135950819964,15219.682779274319,-147692.57130534307,-187500.02235174447,-173342.22624805287,-187500.02235174447,-187500.02235174447,-187500.02235174447,2000
19583.279738817186,15246.63898308742,-147642.346935552,-187500.02235174447,-173292.53832012872,-187500.02235174447,-187500.02235174447,-187500.02235174447,2000
19609.475983318804,15260.809989072084,-147593.95540880627,-187500.02235174447,-173250.58409578612,-187500.02235174447,-187500.02235174447,-187500.02235174447,2000
19589.649985986947,15261.726410594752,-147660.2953863496,-187500.02235174447,-173319.94155883093,-187500.02235174447,-187500.02235174447,-187500.02235174447,2000
19567.410000253916,15251.958698267783,-147707.32345668357,-187500.02235174447,-173364.19801285243,-187500.02235174447,-187500.02235174447,-187500.02235174447,2000
19588.06301213062,15260.273547205157,-147670.57718879907,-187500.02235174447,-173328.68109091296,-187500.02235174447,-187500.02235174447,-187500.02235174447,2000
19621.54592532467,15283.586416672042,-147662.48585730622,-187500.02235174447,-173329.53045720226,-187500.02235174447,-187500.02235174447,-187500.02235174447,2000
19600.26706460322,15273.908111322895,-147753.3233467726,-187500.02235174447,-173421.44083040248,-187500.02235174447,-187500.02235174447,-187500.02235174447,2000
19560.190386794853,15228.77993926763,-147826.1006267191,-187500.02235174447,-173494.1510551156,-187500.02235174447,-187500.02235174447,-187500.02235174447,2000
19583.324442306097,15241.609840584975,-147783.6770157429,-187500.02235174447,-173452.66621740654,-187500.02235174447,-187500.02235174447,-187500.02235174447,2000
19621.769442769222,15259.580643127043,-147752.89866362794,-187500.02235174447,-173429.3756996841,-187500.02235174447,-187500.02235174447,-187500.02235174447,2000
19608.805430985147,15261.681707105841,-147775.07159412763,-187500.02235174447,-173453.9402668405,-187500.02235174447,-187500.02235174447,-187500.02235174447,2000
19579.658756215424,15254.305631435589,-147776.43505053938,-187500.02235174447,-173455.9966273304,-187500.02235174447,-187500.02235174447,-187500.02235174447,2000
19583.79382893966,15264.766247840673,-147824.15602495146,-187500.02235174447,-173505.43868606552,-187500.02235174447,-187500.02235174447,-187500.02235174447,2000
19611.73350950879,15264.587433885032,-147803.50301307478,-187500.02235174447,-173479.26479330836,-187500.02235174447,-187500.02235174447,-187500.02235174447,2000
19613.58870429858,15253.411561657378,-147801.3348938626,-187500.02235174447,-173481.63407822064,-187500.02235174447,-187500.02235174447,-187500.02235174447,2000
19575.814256169113,15241.363971395967,-147877.84491513312,-187500.02235174447,-173563.55322164932,-187500.02235174447,-187500.02235174447,-187500.02235174447,2000
19581.29043356066,15233.697323047796,-147854.3532317106,-187500.02235174447,-173537.44638412553,-187500.02235174447,-187500.02235174447,-187500.02235174447,2000
19606.145573394966,15253.411561657378,-147824.4018941405,-187500.02235174447,-173509.81962797878,-187500.02235174447,-187500.02235174447,-187500.02235174447,2000
19609.096003663064,15258.060724504081,-147883.96929311389,-187500.02235174447,-173572.225698498,-187500.02235174447,-187500.02235174447,-187500.02235174447,2000
19582.631538227983,15252.897471534905,-147860.07527829116,-187500.02235174447,-173549.47162264248,-187500.02235174447,-187500.02235174447,-187500.02235174447,2000
19562.604375196028,15245.63315458693,-147887.903200138,-187500.02235174447,-173584.6756201596,-187500.02235174447,-187500.02235174447,-187500.02235174447,2000
19593.248616844252,15254.886776791427,-147915.28408709576,-187500.02235174447,-173610.8271611723,-187500.02235174447,-187500.02235174447,-187500.02235174447,2000
19613.58870429858,15272.075268277558,-147913.18302311696,-187500.02235174447,-173609.59781522726,-187500.02235174447,-187500.02235174447,-187500.02235174447,2000
19592.041622643665,15243.889718519416,-147975.96907329193,-187500.02235174447,-173675.73662707052,-187500.02235174447,-187500.02235174447,-187500.02235174447,2000
19562.224395540285,15235.261945159667,-147958.55706436123,-187500.02235174447,-173666.8406327773,-187500.02235174447,-187500.02235174447,-187500.02235174447,2000
19581.49159926076,15253.433913401834,-147981.08762277217,-187500.02235174447,-173692.5898423898,-187500.02235174447,-187500.02235174447,-187500.02235174447,2000
19616.20385839985,15266.375573441455,-147970.93993078946,-187500.02235174447,-173676.72010382655,-187500.02235174447,-187500.02235174447,-187500.02235174447,2000
19589.91820692041,15256.071419247559,-147928.87394772458,-187500.02235174447,-173640.51027780896,-187500.02235174447,-187500.02235174447,-187500.02235174447,2000
19565.353639764027,15240.760474295674,-147982.0263960393,-187500.02235174447,-173706.6043861633,-187500.02235174447,-187500.02235174447,-187500.02235174447,2000
19591.080497632087,15241.408674884877,-148037.27990833283,-187500.02235174447,-173762.23787811256,-187500.02235174447,-187500.02235174447,-187500.02235174447,2000
19619.93659972389,15256.026715758648,-148030.97671639643,-187500.02235174447,-173748.62566573927,-187500.02235174447,-187500.02235174447,-187500.02235174447,2000
19592.39925055495,15245.92372726485,-148013.92233537702,-187500.02235174447,-173734.92404638816,-187500.02235174447,-187500.02235174447,-187500.02235174447,2000
19564.548976963637,15238.771169039152,-148086.72196706798,-187500.02235174447,-173813.8257043154,-187500.02235174447,-187500.02235174447,-187500.02235174447,2000
19581.69276496086,15243.912070263872,-148098.14370848463,-187500.02235174447,-173825.44861143216,-187500.02235174447,-187500.02235174447,-187500.02235174447,2000
19617.92494272291,15253.411561657378,-148034.12831236463,-187500.02235174447,-173765.8141572254,-187500.02235174447,-187500.02235174447,-187500.02235174447,2000
19605.564428039128,15255.177349469346,-148114.70635112602,-187500.02235174447,-173857.6351234478,-187500.02235174447,-187500.02235174447,-187500.02235174447,2000
19571.25450030023,15244.11323596397,-148178.02884316788,-187500.02235174447,-173924.556246347,-187500.02235174447,-187500.02235174447,-187500.02235174447,2000
19578.854093415033,15243.174462696847,-148149.68683119857,-187500.02235174447,-173894.20257737668,-187500.02235174447,-187500.02235174447,-187500.02235174447,2000
19617.142631666975,15255.713791336275,-148062.58208305624,-187500.02235174447,-173810.07061124692,-187500.02235174447,-187500.02235174447,-187500.02235174447,2000
19613.476945576305,15252.450436645799,-148144.50122648492,-187500.02235174447,-173900.28225186854,-187500.02235174447,-187500.02235174447,-187500.02235174447,2000
19576.64127071396,15225.091901432503,-148232.8353205723,-187500.02235174447,-173988.6610494448,-187500.02235174447,-187500.02235174447,-187500.02235174447,2000
19571.20979681132,15231.842128258006,-148245.88873933422,-187500.02235174447,-174001.1333228509,-187500.02235174447,-187500.02235174447,-187500.02235174447,2000
19606.950236195356,15253.076285490548,-148189.60704679575,-187500.02235174447,-173947.55619139152,-187500.02235174447,-187500.02235174447,-187500.02235174447,2000
19617.92494272291,15256.20552971429,-148237.5962421413,-187500.02235174447,-174002.76500019612,-187500.02235174447,-187500.02235174447,-187500.02235174447,2000
19588.01830864171,15243.196814441302,-148289.02760613294,-187500.02235174447,-174057.50442236717,-187500.02235174447,-187500.02235174447,-187500.02235174447,2000
19578.65292771494,15232.95971548077,-148265.5359227104,-187500.02235174447,-174036.85141049046,-187500.02235174447,-187500.02235174447,-187500.02235174447,2000
19609.341872852074,15244.604974341986,-148216.8761750312,-187500.02235174447,-173995.4783315037,-187500.02235174447,-187500.02235174447,-187500.02235174447,2000
19621.680035791403,15261.92757629485,-148276.86825714927,-187500.02235174447,-174058.6443613344,-187500.02235174447,-187500.02235174447,-187500.02235174447,2000
19596.959006423833,15251.019925000659,-148310.5076325545,-187500.02235174447,-174090.29443148308,-187500.02235174447,-187500.02235174447,-187500.02235174447,2000
19579.21172132632,15237.385360882923,-148280.22101881757,-187500.02235174447,-174064.85814629294,-187500.02235174447,-187500.02235174447,-187500.02235174447,2000
19605.36326233903,15246.549576109599,-148336.10037995584,-187500.02235174447,-174132.31571105908,-187500.02235174447,-187500.02235174447,-187500.02235174447,2000
19631.179527184908,15255.78084656964,-148377.0264240535,-187500.02235174447,-174174.4487493573,-187500.02235174447,-187500.02235174447,-187500.02235174447,2000
19604.379785582994,15242.392151640912,-148377.38405196476,-187500.02235174447,-174172.88412724546,-187500.02235174447,-187500.02235174447,-187500.02235174447,2000
19577.758857936726,15243.174462696847,-148382.18967702266,-187500.02235174447,-174188.08331347507,-187500.02235174447,-187500.02235174447,-187500.02235174447,2000
19605.340910594572,15243.576794097042,-148402.46270924364,-187500.02235174447,-174214.21250274332,-187500.02235174447,-187500.02235174447,-187500.02235174447,2000
19636.096910965076,15256.16082622538,-148352.08187724138,-187500.02235174447,-174163.87637422996,-187500.02235174447,-187500.02235174447,-187500.02235174447,2000
19618.841364245578,15253.009230257181,-148358.0721447554,-187500.02235174447,-174177.77915928117,-187500.02235174447,-187500.02235174447,-187500.02235174447,2000
19587.30305281914,15244.381456897434,-148401.4792324876,-187500.02235174447,-174221.16389526892,-187500.02235174447,-187500.02235174447,-187500.02235174447,2000
19606.21262862833,15246.72839006524,-148397.29945627446,-187500.02235174447,-174216.4700289333,-187500.02235174447,-187500.02235174447,-187500.02235174447,2000
19636.65570457646,15257.658393103886,-148404.7202354336,-187500.02235174447,-174230.52927619568,-187500.02235174447,-187500.02235174447,-187500.02235174447,2000
19629.100814950565,15256.54080588112,-148416.1196251058,-187500.02235174447,-174239.31351176664,-187500.02235174447,-187500.02235174447,-187500.02235174447,2000
19593.40507905544,15237.318305649556,-148431.20705261314,-187500.02235174447,-174259.9888753878,-187500.02235174447,-187500.02235174447,-187500.02235174447,2000
19596.579026768093,15231.484500346722,-148486.37115792886,-187500.02235174447,-174319.8468470391,-187500.02235174447,-187500.02235174447,-187500.02235174447,2000
19641.617791845536,15246.594279598508,-148439.4995498061,-187500.02235174447,-174271.16474761543,-187500.02235174447,-187500.02235174447,-187500.02235174447,2000
19633.951143497365,15265.928538552349,-148419.5394420075,-187500.02235174447,-174256.99374163078,-187500.02235174447,-187500.02235174447,-187500.02235174447,2000
19593.181561610887,15246.01313424267,-148505.68306513823,-187500.02235174447,-174349.5523154202,-187500.02235174447,-187500.02235174447,-187500.02235174447,2000
19588.86767493101,15239.262907417167,-148523.78797814704,-187500.02235174447,-174366.31612376167,-187500.02235174447,-187500.02235174447,-187500.02235174447,2000
19630.88895450699,15256.697268092308,-148509.84048960693,-187500.02235174447,-174353.91090558897,-187500.02235174447,-187500.02235174447,-187500.02235174447,2000
19640.142576711485,15271.471771177266,-148533.44393175174,-187500.02235174447,-174382.47643500287,-187500.02235174447,-187500.02235174447,-187500.02235174447,2000
19606.078518161597,15232.803253269585,-148565.42927806728,-187500.02235174447,-174413.38889758455,-187500.02235174447,-187500.02235174447,-187500.02235174447,2000
19594.12033487801,15232.78090152513,-148552.3535075609,-187500.02235174447,-174403.8223509577,-187500.02235174447,-187500.02235174447,-187500.02235174447,2000
